#Depth (m)	Ice age (a B1950)	Ice age std (a)	Gas age (a B1950)	Gas age std (a)	Accu. Rate (m ie)	Thinning	LIDIE (m ie)
0.00	-55.00	22.44	-1.00	-1.00	0.0291	0.9948	-1.00
1.65	-41.54	32.03	-1.00	-1.00	0.0291	0.9945	-1.00
3.30	-20.47	63.21	-1.00	-1.00	0.0292	0.9942	-1.00
4.95	4.30	81.82	-1.00	-1.00	0.0293	0.9941	-1.00
6.60	31.06	90.52	-1.00	-1.00	0.0290	0.9941	-1.00
8.25	57.05	88.25	-1.00	-1.00	0.0288	0.9940	-1.00
9.90	85.04	84.33	-1.00	-1.00	0.0273	0.9939	-1.00
11.55	114.51	92.06	-1.00	-1.00	0.0264	0.9938	-1.00
13.20	145.00	98.90	-1.00	-1.00	0.0267	0.9939	-1.00
14.85	176.33	99.86	-1.00	-1.00	0.0268	0.9938	-1.00
16.50	207.54	101.99	-1.00	-1.00	0.0270	0.9937	-1.00
18.15	239.98	105.30	-1.00	-1.00	0.0265	0.9935	-1.00
19.80	274.20	108.71	-1.00	-1.00	0.0261	0.9932	-1.00
21.45	310.09	103.28	-1.00	-1.00	0.0259	0.9926	-1.00
23.10	346.64	113.60	-1.00	-1.00	0.0253	0.9922	-1.00
24.75	384.89	118.78	-1.00	-1.00	0.0254	0.9919	-1.00
26.40	423.74	117.34	-1.00	-1.00	0.0263	0.9916	-1.00
28.05	461.70	116.86	-1.00	-1.00	0.0265	0.9913	-1.00
29.70	500.20	120.22	-1.00	-1.00	0.0262	0.9910	-1.00
31.35	539.86	120.13	-1.00	-1.00	0.0265	0.9907	-1.00
33.00	579.52	118.77	-1.00	-1.00	0.0274	0.9906	-1.00
34.65	618.15	117.78	-1.00	-1.00	0.0284	0.9906	-1.00
36.30	655.80	136.91	-1.00	-1.00	0.0269	0.9905	-1.00
37.95	696.74	130.57	-1.00	-1.00	0.0255	0.9904	-1.00
39.60	740.26	130.80	-1.00	-1.00	0.0256	0.9905	-1.00
41.25	784.06	122.54	-1.00	-1.00	0.0278	0.9906	-1.00
42.90	824.80	131.82	-1.00	-1.00	0.0301	0.9905	-1.00
44.55	863.05	132.20	-1.00	-1.00	0.0284	0.9903	-1.00
46.20	903.94	135.38	-1.00	-1.00	0.0267	0.9901	-1.00
47.85	947.77	139.37	-1.00	-1.00	0.0264	0.9899	-1.00
49.50	992.56	138.98	-1.00	-1.00	0.0273	0.9897	-1.00
51.15	1037.03	138.05	-1.00	-1.00	0.0280	0.9894	-1.00
52.80	1080.33	136.94	-1.00	-1.00	0.0274	0.9892	-1.00
54.45	1124.67	118.88	-1.00	-1.00	0.0280	0.9888	-1.00
56.10	1169.43	126.99	-1.00	-1.00	0.0291	0.9885	32.74
57.75	1212.13	146.71	81.12	94.26	0.0292	0.9881	33.93
59.40	1255.11	145.19	85.86	98.00	0.0285	0.9877	35.14
61.05	1300.31	148.99	91.38	101.52	0.0284	0.9873	36.37
62.70	1345.56	133.52	95.77	104.80	0.0292	0.9868	37.63
64.35	1390.30	136.06	100.11	108.34	0.0298	0.9866	38.85
66.00	1433.90	149.06	105.07	112.12	0.0272	0.9861	40.10
67.65	1482.74	138.28	110.46	116.51	0.0276	0.9858	41.41
69.30	1530.90	148.65	113.69	124.75	0.0279	0.9855	42.70
70.95	1578.87	146.65	117.98	128.69	0.0278	0.9853	44.02
72.60	1627.50	141.39	121.44	131.86	0.0272	0.9850	45.36
74.25	1677.80	146.34	124.99	135.16	0.0276	0.9848	46.71
75.90	1727.92	153.51	128.15	139.07	0.0273	0.9845	48.08
77.55	1778.58	152.97	130.96	143.41	0.0275	0.9842	49.49
79.20	1829.26	138.67	132.92	146.83	0.0271	0.9838	50.88
80.85	1881.37	157.04	136.33	150.37	0.0284	0.9833	52.29
82.50	1930.73	142.35	138.76	154.03	0.0285	0.9828	53.66
84.15	1980.74	154.33	143.23	162.77	0.0279	0.9824	55.06
85.80	2031.85	146.42	146.47	167.32	0.0270	0.9819	56.48
87.45	2084.97	177.60	149.45	171.63	0.0282	0.9815	58.00
89.10	2136.64	171.64	150.21	176.46	0.0280	0.9810	59.46
90.75	2188.70	149.24	152.65	180.50	0.0270	0.9806	60.93
92.40	2243.55	164.20	155.41	184.45	0.0290	0.9801	62.41
94.05	2294.52	161.92	158.12	188.51	0.0286	0.9796	63.90
95.70	2346.95	164.73	161.00	192.91	0.0250	0.9791	65.40
97.35	2407.06	169.93	163.44	195.10	0.0262	0.9787	66.46
99.00	2464.03	177.15	178.57	211.18	0.0266	0.9782	65.47
100.65	2520.86	184.35	255.47	230.41	0.0283	0.9777	64.16
102.30	2574.79	180.93	348.57	235.68	0.0286	0.9772	65.62
103.95	2628.03	176.70	353.37	231.87	0.0293	0.9767	65.07
105.60	2680.49	166.64	426.35	241.22	0.0284	0.9764	64.33
107.25	2734.89	176.96	503.53	243.93	0.0291	0.9758	64.92
108.90	2788.15	164.98	538.32	249.59	0.0305	0.9754	66.48
110.55	2838.65	166.70	539.94	243.54	0.0314	0.9748	66.38
112.20	2888.64	166.03	597.52	253.80	0.0289	0.9743	65.14
113.85	2942.97	171.38	690.31	268.17	0.0288	0.9736	64.70
115.50	2997.20	179.98	763.04	230.72	0.0276	0.9731	63.98
117.15	3054.25	192.64	840.70	248.37	0.0286	0.9724	64.64
118.80	3109.20	193.51	870.91	251.53	0.0296	0.9720	65.64
120.45	3162.77	197.65	891.05	267.94	0.0284	0.9714	64.11
122.10	3219.34	185.49	1001.09	261.81	0.0267	0.9708	63.85
123.75	3279.95	185.28	1066.10	270.51	0.0275	0.9702	63.52
125.40	3338.77	176.45	1133.02	273.22	0.0281	0.9696	64.14
127.05	3396.81	179.60	1168.94	261.40	0.0273	0.9691	63.72
128.70	3456.58	200.24	1236.33	278.04	0.0282	0.9684	64.42
130.35	3514.74	201.24	1268.58	283.06	0.0292	0.9680	65.35
132.00	3570.59	197.07	1293.39	278.31	0.0290	0.9674	64.86
133.65	3627.34	179.63	1365.60	272.82	0.0300	0.9670	65.52
135.30	3682.58	204.01	1399.01	305.68	0.0304	0.9667	66.04
136.95	3737.02	188.99	1435.78	298.99	0.0307	0.9662	65.90
138.60	3790.94	187.69	1499.60	295.30	0.0289	0.9657	64.60
140.25	3848.20	190.22	1602.09	299.25	0.0285	0.9653	63.99
141.90	3906.34	176.00	1682.30	301.35	0.0287	0.9650	64.92
143.55	3964.41	200.11	1708.86	304.77	0.0285	0.9643	64.76
145.20	4023.05	197.47	1775.41	311.76	0.0295	0.9639	64.65
146.85	4079.72	188.73	1838.93	314.07	0.0295	0.9635	65.26
148.50	4136.81	201.67	1878.43	301.06	0.0289	0.9627	64.78
150.15	4194.70	181.16	1953.14	305.73	0.0293	0.9623	64.26
151.80	4252.23	202.66	2029.43	313.39	0.0300	0.9618	66.07
153.45	4308.32	207.91	2026.32	312.08	0.0290	0.9613	64.82
155.10	4366.42	203.82	2129.89	316.28	0.0287	0.9608	65.14
156.75	4425.14	206.50	2178.07	304.42	0.0289	0.9606	64.37
158.40	4483.57	206.39	2264.68	311.30	0.0304	0.9604	66.06
160.05	4539.45	202.33	2265.56	336.97	0.0280	0.9597	63.72
161.70	4599.70	214.76	2412.28	345.24	0.0288	0.9594	65.25
163.35	4658.60	216.69	2419.43	341.05	0.0288	0.9588	64.48
165.00	4717.34	219.56	2510.90	326.32	0.0287	0.9583	64.84
166.65	4776.56	205.13	2559.21	313.61	0.0278	0.9581	64.51
168.30	4837.69	213.19	2628.86	315.83	0.0281	0.9575	64.75
169.95	4898.27	201.72	2678.98	329.93	0.0298	0.9572	65.13
171.60	4955.40	207.81	2725.33	302.60	0.0291	0.9567	64.41
173.25	5013.89	232.42	2807.22	307.50	0.0285	0.9563	65.42
174.90	5073.67	225.97	2829.86	321.62	0.0281	0.9561	63.86
176.55	5134.35	236.36	2936.85	334.56	0.0297	0.9556	66.51
178.20	5192.23	247.38	2905.93	333.01	0.0295	0.9553	66.21
179.85	5250.09	214.62	2974.82	334.33	0.0283	0.9548	65.55
181.50	5310.46	233.00	3059.16	322.56	0.0294	0.9544	64.66
183.15	5368.96	243.88	3147.28	364.76	0.0293	0.9538	64.07
184.80	5427.26	226.39	3227.76	369.80	0.0260	0.9534	64.62
186.45	5493.35	236.09	3271.71	364.59	0.0266	0.9532	65.84
188.10	5557.76	241.04	3290.14	357.45	0.0288	0.9528	63.53
189.75	5617.60	237.82	3433.73	345.39	0.0289	0.9525	63.13
191.40	5676.74	249.27	3508.70	335.48	0.0284	0.9523	64.28
193.05	5737.28	230.05	3528.90	337.80	0.0294	0.9518	63.71
194.70	5795.90	223.24	3607.11	332.31	0.0303	0.9517	64.27
196.35	5852.38	245.96	3645.63	328.98	0.0303	0.9513	64.76
198.00	5909.33	252.62	3687.07	335.31	0.0285	0.9510	65.88
199.65	5969.74	230.27	3707.18	344.95	0.0272	0.9507	64.52
201.30	6033.05	270.89	3808.08	349.12	0.0293	0.9502	65.97
202.95	6091.88	239.94	3818.92	356.08	0.0284	0.9500	65.98
204.60	6152.24	258.03	3877.45	357.16	0.0290	0.9498	64.98
206.25	6211.86	280.02	3971.81	358.75	0.0287	0.9495	65.29
207.90	6271.95	280.25	4021.55	346.99	0.0279	0.9494	64.36
209.55	6333.90	271.77	4110.28	351.10	0.0280	0.9490	64.19
211.20	6395.52	271.08	4175.61	347.72	0.0272	0.9486	64.57
212.85	6458.97	260.03	4222.23	341.08	0.0298	0.9481	65.31
214.50	6516.94	254.67	4256.51	354.34	0.0272	0.9479	65.20
216.15	6580.44	269.31	4317.78	352.00	0.0279	0.9474	64.54
217.80	6642.38	243.43	4400.42	349.87	0.0270	0.9468	64.71
219.45	6706.43	239.30	4455.40	340.61	0.0288	0.9469	65.24
221.10	6766.59	233.30	4495.58	363.98	0.0278	0.9469	64.05
222.75	6828.86	231.87	4594.62	358.86	0.0282	0.9467	64.40
224.40	6890.37	224.19	4642.58	365.59	0.0308	0.9462	65.95
226.05	6946.67	235.42	4650.04	362.22	0.0282	0.9460	64.78
227.70	7008.11	211.53	4749.95	370.62	0.0282	0.9454	64.39
229.35	7069.53	217.50	4826.02	369.33	0.0275	0.9451	64.80
231.00	7132.90	220.07	4891.28	350.50	0.0273	0.9449	64.64
232.65	7196.54	207.91	4938.30	355.30	0.0255	0.9442	64.44
234.30	7264.70	210.56	5005.04	363.64	0.0268	0.9437	63.88
235.95	7329.52	198.04	5085.98	372.25	0.0298	0.9432	65.58
237.60	7387.94	211.06	5088.55	351.74	0.0264	0.9425	65.19
239.25	7453.85	203.24	5163.14	362.30	0.0271	0.9419	64.74
240.90	7518.59	196.49	5252.80	353.42	0.0284	0.9421	64.30
242.55	7579.87	199.18	5313.00	358.06	0.0302	0.9420	64.92
244.20	7637.47	207.03	5351.11	364.70	0.0289	0.9420	66.05
245.85	7697.71	205.47	5371.54	393.41	0.0290	0.9418	64.03
247.50	7758.06	192.80	5522.42	395.11	0.0290	0.9414	64.48
249.15	7818.14	190.51	5556.91	374.09	0.0285	0.9411	65.50
250.80	7879.23	196.40	5582.54	367.49	0.0285	0.9404	63.85
252.45	7940.70	191.79	5713.71	350.47	0.0291	0.9396	63.61
254.10	8001.02	211.55	5782.69	334.18	0.0272	0.9394	62.11
255.75	8065.51	201.05	5888.81	349.44	0.0262	0.9388	65.56
257.40	8132.69	204.96	5835.44	362.73	0.0275	0.9381	64.34
259.05	8196.56	219.63	5934.93	377.08	0.0256	0.9373	64.25
260.70	8265.36	196.41	6001.39	386.99	0.0272	0.9372	65.56
262.35	8330.12	229.00	6018.02	362.70	0.0273	0.9370	65.90
264.00	8394.61	222.05	6067.02	371.79	0.0265	0.9369	65.46
265.65	8461.03	209.37	6142.22	362.59	0.0275	0.9366	64.04
267.30	8525.12	221.78	6250.96	371.02	0.0284	0.9363	63.56
268.95	8587.21	224.39	6329.61	377.36	0.0285	0.9363	64.56
270.60	8648.95	252.92	6356.28	392.21	0.0293	0.9362	65.01
272.25	8709.11	233.92	6402.65	352.70	0.0284	0.9357	64.31
273.90	8771.17	241.48	6489.72	386.21	0.0283	0.9355	64.37
275.55	8833.51	248.98	6549.15	378.26	0.0275	0.9356	64.05
277.20	8897.68	238.19	6622.58	363.52	0.0296	0.9355	63.24
278.85	8957.30	254.75	6715.05	377.49	0.0295	0.9353	63.42
280.50	9017.10	240.10	6769.53	389.17	0.0296	0.9353	65.00
282.15	9076.72	246.94	6776.27	380.12	0.0295	0.9357	63.62
283.80	9136.60	229.89	6885.61	349.68	0.0288	0.9355	63.72
285.45	9197.82	228.05	6939.41	375.47	0.0281	0.9353	62.62
287.10	9260.62	229.77	7039.11	388.90	0.0311	0.9356	64.43
288.75	9317.27	242.49	7036.72	395.88	0.0294	0.9352	63.80
290.40	9377.26	241.07	7122.48	418.72	0.0303	0.9349	63.05
292.05	9435.45	238.21	7215.35	406.11	0.0310	0.9350	65.47
293.70	9492.35	235.75	7190.12	406.11	0.0324	0.9349	64.13
295.35	9546.90	233.21	7307.53	364.37	0.0292	0.9349	63.73
297.00	9607.35	236.36	7381.47	402.75	0.0308	0.9351	63.43
298.65	9664.62	228.51	7457.16	382.92	0.0310	0.9351	63.48
300.30	9721.51	245.74	7519.93	365.05	0.0319	0.9355	61.33
301.95	9776.80	249.78	7651.00	372.49	0.0324	0.9353	62.63
303.60	9831.27	250.43	7667.29	375.17	0.0333	0.9354	63.01
305.25	9884.18	245.79	7714.54	384.56	0.0292	0.9357	64.27
306.90	9944.53	249.84	7731.21	377.44	0.0309	0.9356	62.20
308.55	10001.60	247.92	7862.57	385.43	0.0306	0.9357	63.15
310.20	10059.30	269.85	7890.91	379.19	0.0309	0.9355	63.14
311.85	10116.40	272.99	7952.86	392.24	0.0319	0.9354	65.11
313.50	10171.70	267.06	7946.10	416.56	0.0318	0.9352	64.52
315.15	10227.10	263.17	8028.74	429.86	0.0324	0.9349	63.90
316.80	10281.70	257.53	8119.02	409.21	0.0314	0.9351	63.82
318.45	10338.00	257.03	8185.72	450.60	0.0303	0.9351	65.21
320.10	10396.10	257.86	8199.72	408.59	0.0313	0.9354	62.84
321.75	10452.50	255.49	8354.26	419.31	0.0298	0.9353	64.71
323.40	10511.60	262.46	8350.78	408.48	0.0295	0.9351	63.47
325.05	10571.50	262.79	8462.97	392.13	0.0332	0.9356	62.64
326.70	10624.60	251.55	8554.94	386.10	0.0345	0.9353	62.09
328.35	10675.70	248.06	8636.66	379.77	0.0300	0.9354	62.59
330.00	10734.50	242.60	8680.16	386.45	0.0303	0.9353	61.47
331.65	10792.70	243.27	8780.87	396.14	0.0311	0.9346	63.27
333.30	10849.50	244.77	8781.29	405.52	0.0295	0.9344	63.02
334.95	10909.50	228.53	8853.38	372.54	0.0305	0.9340	62.24
336.60	10967.40	231.58	8943.55	377.25	0.0307	0.9336	62.90
338.25	11025.00	231.63	8981.89	377.75	0.0303	0.9331	63.34
339.90	11083.30	242.84	9027.66	383.11	0.0291	0.9325	64.16
341.55	11144.00	248.52	9061.19	387.38	0.0315	0.9324	64.16
343.20	11200.30	238.53	9121.28	394.91	0.0300	0.9316	63.98
344.85	11259.30	219.85	9190.24	361.27	0.0285	0.9305	63.41
346.50	11321.50	239.92	9274.20	380.80	0.0316	0.9299	63.17
348.15	11377.70	228.13	9341.18	389.56	0.0303	0.9293	64.38
349.80	11436.40	239.51	9361.74	378.92	0.0307	0.9288	64.42
351.45	11494.20	255.63	9420.00	377.10	0.0311	0.9286	65.46
353.10	11551.30	266.97	9444.39	359.20	0.0289	0.9281	64.87
354.75	11612.90	229.46	9520.14	370.85	0.0319	0.9277	66.87
356.40	11668.70	252.68	9514.22	378.92	0.0318	0.9273	68.27
358.05	11724.60	286.17	9526.77	427.55	0.0286	0.9269	69.26
359.70	11786.80	291.35	9552.67	438.53	0.0296	0.9268	70.74
361.35	11846.90	316.50	9563.21	448.49	0.0304	0.9261	72.26
363.00	11905.50	313.96	9573.39	425.69	0.0294	0.9256	72.47
364.65	11966.20	338.98	9627.15	416.66	0.0281	0.9251	71.36
366.30	12029.70	330.81	9720.98	391.52	0.0261	0.9245	70.15
367.95	12097.90	346.89	9814.57	427.22	0.0256	0.9240	69.06
369.60	12167.70	383.53	9903.74	398.62	0.0257	0.9236	68.13
371.25	12237.20	405.74	9993.70	395.93	0.0246	0.9228	67.71
372.90	12309.80	396.70	10066.70	384.87	0.0229	0.9224	67.79
374.55	12387.90	424.70	10122.20	389.19	0.0237	0.9221	68.28
376.20	12463.40	409.12	10162.80	394.43	0.0240	0.9219	68.59
377.85	12538.00	433.74	10209.30	397.79	0.0215	0.9216	67.89
379.50	12621.10	440.58	10286.10	426.20	0.0221	0.9213	68.29
381.15	12702.10	437.10	10330.50	467.01	0.0216	0.9211	68.38
382.80	12785.10	458.12	10386.10	490.90	0.0194	0.9210	67.45
384.45	12877.40	454.06	10473.20	511.92	0.0203	0.9210	66.88
386.10	12965.80	433.18	10551.70	443.66	0.0201	0.9210	66.05
387.75	13054.90	431.82	10631.20	467.68	0.0202	0.9208	61.85
389.40	13143.70	457.60	10820.10	479.95	0.0204	0.9207	62.90
391.05	13231.60	452.31	10844.00	505.48	0.0203	0.9207	66.06
392.70	13320.00	452.99	10800.60	518.47	0.0201	0.9208	67.79
394.35	13409.40	421.31	10802.50	509.32	0.0207	0.9207	65.65
396.00	13495.90	430.48	10930.60	496.99	0.0211	0.9207	65.00
397.65	13580.90	455.01	11009.40	511.87	0.0211	0.9207	64.30
399.30	13665.80	462.83	11090.60	467.54	0.0193	0.9209	64.12
400.95	13758.90	439.19	11156.10	470.57	0.0209	0.9211	65.65
402.60	13844.70	469.48	11163.90	468.63	0.0207	0.9212	66.70
404.25	13931.30	465.34	11186.70	484.38	0.0193	0.9212	67.16
405.90	14024.10	470.67	11229.90	491.68	0.0201	0.9215	66.30
407.55	14113.30	482.06	11319.70	446.54	0.0213	0.9218	65.34
409.20	14197.20	440.09	11406.70	416.04	0.0206	0.9220	63.96
410.85	14284.20	456.92	11509.00	440.38	0.0230	0.9222	64.40
412.50	14362.20	433.73	11551.90	416.28	0.0215	0.9224	66.90
414.15	14445.40	437.26	11528.50	424.09	0.0221	0.9226	68.56
415.80	14526.40	415.03	11532.10	434.89	0.0224	0.9230	70.02
417.45	14606.10	442.19	11541.70	447.44	0.0256	0.9228	71.95
419.10	14675.90	456.73	11537.60	432.54	0.0239	0.9221	71.24
420.75	14750.70	436.13	11623.50	471.95	0.0215	0.9214	69.83
422.40	14834.00	435.55	11724.90	453.50	0.0213	0.9206	68.91
424.05	14918.10	448.24	11820.10	463.63	0.0206	0.9197	67.88
425.70	15005.40	451.85	11915.40	490.68	0.0192	0.9187	66.75
427.35	15098.70	479.15	12019.10	551.72	0.0202	0.9177	65.92
429.00	15187.70	487.85	12121.60	561.63	0.0209	0.9168	64.94
430.65	15273.70	472.50	12231.20	642.04	0.0199	0.9157	63.79
432.30	15364.20	515.81	12356.40	651.15	0.0208	0.9150	64.41
433.95	15450.80	533.64	12409.50	680.44	0.0199	0.9142	65.03
435.60	15541.40	515.16	12461.30	702.67	0.0198	0.9133	65.76
437.25	15632.60	508.95	12508.40	809.29	0.0183	0.9125	65.95
438.90	15731.50	554.30	12581.70	814.17	0.0180	0.9117	66.03
440.55	15832.30	571.92	12663.00	858.69	0.0187	0.9108	66.28
442.20	15929.40	555.63	12736.20	978.25	0.0182	0.9101	66.29
443.85	16029.10	564.28	12825.00	958.59	0.0182	0.9093	66.29
445.50	16128.60	579.58	12918.70	981.19	0.0184	0.9084	66.00
447.15	16227.10	614.30	13025.10	963.67	0.0177	0.9075	64.19
448.80	16329.80	655.24	13204.60	974.12	0.0175	0.9067	62.37
450.45	16433.80	663.30	13384.80	926.51	0.0169	0.9057	60.87
452.10	16541.90	717.31	13545.80	960.41	0.0171	0.9050	61.39
453.75	16648.40	741.95	13608.70	1088.44	0.0168	0.9042	61.99
455.40	16756.70	719.13	13668.80	1133.31	0.0167	0.9035	62.72
457.05	16865.80	784.79	13727.20	1077.37	0.0163	0.9026	62.71
458.70	16978.30	711.35	13818.40	1185.21	0.0154	0.9017	61.90
460.35	17096.70	763.17	13947.10	1166.00	0.0154	0.9010	61.30
462.00	17215.40	795.46	14070.90	1120.27	0.0147	0.9002	60.64
463.65	17340.30	788.05	14190.10	1207.48	0.0144	0.8994	61.24
465.30	17468.10	748.65	14250.70	1277.86	0.0150	0.8987	63.14
466.95	17590.10	808.02	14250.60	1194.52	0.0144	0.8979	64.20
468.60	17717.30	790.56	14289.10	1293.50	0.0141	0.8971	63.78
470.25	17847.60	888.68	14388.90	1268.12	0.0137	0.8962	63.15
471.90	17981.90	897.01	14502.20	1104.47	0.0132	0.8952	62.46
473.55	18121.60	889.95	14614.00	1195.38	0.0141	0.8942	62.70
475.20	18252.40	911.21	14677.70	1220.70	0.0138	0.8932	63.55
476.85	18385.80	943.14	14720.70	1378.93	0.0135	0.8922	64.14
478.50	18522.70	911.38	14777.30	1402.25	0.0141	0.8911	65.04
480.15	18653.60	900.17	14823.40	1417.82	0.0139	0.8902	64.96
481.80	18787.10	924.90	14914.10	1538.35	0.0135	0.8893	63.46
483.45	18924.30	1035.08	15080.00	1394.29	0.0146	0.8883	62.34
485.10	19051.30	1009.35	15225.50	1374.26	0.0140	0.8872	61.01
486.75	19184.30	1001.10	15381.10	1414.65	0.0143	0.8863	60.11
488.40	19314.80	999.08	15515.30	1519.21	0.0141	0.8856	59.13
490.05	19446.60	943.66	15659.00	1544.09	0.0140	0.8849	58.91
491.70	19579.60	902.23	15772.70	1569.77	0.0146	0.8842	59.74
493.35	19707.40	866.45	15831.20	1536.65	0.0152	0.8834	60.57
495.00	19830.50	944.42	15887.80	1593.28	0.0143	0.8826	61.05
496.65	19961.30	963.01	15963.60	1618.02	0.0141	0.8819	61.81
498.30	20094.20	930.08	16025.40	1640.46	0.0144	0.8812	62.60
499.95	20224.20	953.86	16085.80	1649.43	0.0153	0.8804	63.61
501.60	20346.60	1000.36	16134.50	1700.49	0.0144	0.8796	62.92
503.25	20476.90	998.69	16274.10	1738.50	0.0153	0.8789	61.03
504.90	20599.60	999.00	16486.50	1679.64	0.0150	0.8783	58.77
506.55	20725.10	1017.95	16726.00	1704.51	0.0145	0.8775	57.50
508.20	20854.70	1106.11	16912.90	1807.07	0.0155	0.8768	57.92
509.85	20975.90	1046.63	17004.80	1807.37	0.0148	0.8759	57.95
511.50	21102.90	1116.05	17125.20	1914.86	0.0153	0.8753	58.38
513.15	21226.30	1064.50	17219.10	1937.84	0.0147	0.8744	59.25
514.80	21354.60	1019.57	17290.60	2017.88	0.0151	0.8738	60.42
516.45	21479.50	1006.38	17340.70	2037.02	0.0145	0.8731	61.13
518.10	21610.20	1011.69	17423.90	1993.57	0.0155	0.8724	60.13
519.75	21732.60	948.36	17616.50	2019.48	0.0144	0.8717	57.66
521.40	21863.60	968.74	17920.00	1902.31	0.0139	0.8710	55.46
523.05	21999.70	928.23	18216.30	1973.73	0.0149	0.8701	54.88
524.70	22127.00	934.33	18394.00	1993.03	0.0140	0.8695	55.31
526.35	22262.50	888.57	18502.50	1932.77	0.0135	0.8688	55.81
528.00	22403.30	950.57	18603.10	1984.50	0.0138	0.8680	56.13
529.65	22540.70	1049.23	18716.50	2010.87	0.0143	0.8673	55.31
531.30	22673.50	1028.75	18914.20	1918.73	0.0143	0.8666	54.29
532.95	22806.90	1093.07	19116.00	1861.25	0.0137	0.8660	53.68
534.60	22946.00	1058.15	19292.50	1880.11	0.0136	0.8652	54.01
536.25	23086.10	1019.54	19404.10	1898.48	0.0137	0.8645	54.35
537.90	23225.80	1006.22	19516.30	1841.94	0.0145	0.8639	54.98
539.55	23357.10	963.46	19606.80	1786.76	0.0139	0.8634	55.28
541.20	23494.50	973.59	19716.90	1792.96	0.0132	0.8626	55.56
542.85	23639.70	910.25	19825.00	1921.14	0.0137	0.8618	56.19
544.50	23779.00	984.42	19915.60	1981.32	0.0137	0.8611	56.92
546.15	23919.10	1041.89	20000.40	1973.20	0.0126	0.8606	57.50
547.80	24071.10	1072.87	20095.40	2013.47	0.0123	0.8599	58.34
549.45	24226.90	1110.97	20171.70	1935.41	0.0121	0.8591	59.07
551.10	24385.90	1130.18	20253.90	2044.52	0.0126	0.8586	58.48
552.75	24537.90	1097.08	20420.60	1937.82	0.0119	0.8579	57.20
554.40	24700.00	1030.56	20632.40	1968.26	0.0127	0.8571	56.34
556.05	24851.20	1070.92	20820.70	1885.17	0.0114	0.8564	54.92
557.70	25020.70	995.67	21038.90	1850.61	0.0116	0.8558	53.25
559.35	25186.80	1031.06	21275.20	1792.08	0.0116	0.8551	52.87
561.00	25353.90	1012.35	21429.30	1857.41	0.0117	0.8544	54.90
562.65	25519.00	996.08	21425.90	1919.55	0.0109	0.8536	54.55
564.30	25696.30	958.28	21581.60	1832.62	0.0113	0.8530	55.61
565.95	25867.30	944.81	21641.00	1953.00	0.0116	0.8523	55.75
567.60	26033.70	962.35	21758.90	2006.72	0.0115	0.8517	57.44
569.25	26202.30	990.24	21778.40	2066.16	0.0118	0.8511	57.12
570.90	26366.50	902.70	21936.90	2141.19	0.0117	0.8505	59.22
572.55	26532.10	837.99	21927.90	1994.19	0.0115	0.8498	58.92
574.20	26701.60	873.74	22083.20	2040.02	0.0117	0.8492	60.35
575.85	26868.00	857.55	22119.40	2206.95	0.0117	0.8487	61.64
577.50	27034.70	893.39	22167.00	2249.97	0.0115	0.8481	60.98
579.15	27203.40	856.90	22354.80	2199.55	0.0117	0.8472	61.85
580.80	27370.60	844.70	22436.40	2197.67	0.0116	0.8470	62.54
582.45	27538.90	803.86	22526.40	2106.41	0.0121	0.8460	63.11
584.10	27700.00	726.66	22626.00	2153.42	0.0134	0.8459	62.35
585.75	27845.80	707.11	22811.20	2151.06	0.0126	0.8453	62.86
587.40	28000.90	657.48	22917.30	2181.36	0.0125	0.8452	63.49
589.05	28157.10	694.43	23012.90	2258.92	0.0135	0.8450	65.70
590.70	28302.20	703.92	22996.00	2226.95	0.0130	0.8444	64.81
592.35	28452.00	750.93	23202.20	2173.34	0.0122	0.8430	64.28
594.00	28612.70	803.11	23379.30	2221.72	0.0123	0.8429	65.51
595.65	28771.30	807.75	23430.30	2326.26	0.0136	0.8424	65.19
597.30	28915.10	749.06	23598.60	2327.65	0.0139	0.8421	62.66
598.95	29055.90	767.69	23921.80	2348.83	0.0133	0.8415	62.34
600.60	29203.70	874.72	24103.50	2380.98	0.0132	0.8413	62.68
602.25	29352.50	836.40	24233.50	2223.02	0.0138	0.8410	61.90
603.90	29494.90	800.59	24454.40	2337.99	0.0142	0.8404	61.79
605.55	29633.20	854.88	24624.10	2344.00	0.0147	0.8395	59.60
607.20	29767.10	907.87	24966.40	2300.95	0.0143	0.8385	59.69
608.85	29904.60	859.48	25131.10	2333.83	0.0140	0.8380	59.87
610.50	30045.40	856.30	25285.80	2327.23	0.0145	0.8377	59.67
612.15	30181.40	929.57	25469.90	2407.29	0.0134	0.8368	59.04
613.80	30328.80	961.37	25706.30	2366.69	0.0127	0.8360	58.94
615.45	30484.40	981.69	25890.10	2410.42	0.0129	0.8358	59.41
617.10	30638.00	940.13	26018.30	2375.42	0.0132	0.8356	58.99
618.75	30788.10	865.51	26223.10	2390.18	0.0131	0.8349	59.30
620.40	30938.80	883.42	26364.90	2451.81	0.0129	0.8341	59.15
622.05	31092.20	881.17	26549.30	2381.70	0.0131	0.8334	58.64
623.70	31243.40	881.71	26764.60	2396.88	0.0137	0.8325	59.12
625.35	31388.20	916.15	26896.90	2417.47	0.0130	0.8314	59.10
627.00	31540.40	893.63	27072.10	2386.43	0.0124	0.8316	58.95
628.65	31701.00	883.36	27251.80	2396.06	0.0126	0.8313	59.12
630.30	31859.00	879.94	27407.10	2278.01	0.0128	0.8305	59.24
631.95	32014.50	881.02	27567.90	2309.10	0.0123	0.8302	60.73
633.60	32175.70	816.31	27610.60	2350.13	0.0135	0.8298	62.57
635.25	32323.10	923.76	27624.80	2158.18	0.0139	0.8296	60.16
636.90	32466.30	839.16	27962.10	2234.90	0.0138	0.8293	62.64
638.55	32610.90	818.56	27926.50	2033.28	0.0132	0.8277	61.21
640.20	32762.00	817.88	28200.00	2095.85	0.0134	0.8267	61.11
641.85	32910.70	851.74	28359.00	2266.41	0.0130	0.8263	61.54
643.50	33064.00	873.27	28481.00	2313.02	0.0118	0.8252	62.86
645.15	33233.60	905.53	28542.50	2402.47	0.0121	0.8252	65.36
646.80	33398.40	816.03	28501.70	2312.69	0.0129	0.8233	64.36
648.45	33553.80	802.28	28753.80	2004.90	0.0139	0.8225	63.09
650.10	33698.30	832.08	28992.70	2134.71	0.0140	0.8225	64.10
651.75	33841.20	806.71	29063.30	2167.91	0.0133	0.8225	64.82
653.40	33991.80	770.18	29157.20	2227.09	0.0134	0.8214	65.78
655.05	34141.20	881.74	29241.30	2148.41	0.0128	0.8190	65.95
656.70	34299.20	856.51	29389.90	1978.59	0.0118	0.8196	63.57
658.35	34469.90	877.34	29690.20	2073.79	0.0118	0.8189	64.46
660.00	34640.20	864.57	29768.10	2070.14	0.0124	0.8181	63.06
661.65	34803.40	925.54	30007.80	2068.13	0.0122	0.8172	60.97
663.30	34968.80	868.93	30300.30	2141.50	0.0133	0.8162	61.21
664.95	35120.80	910.28	30441.20	2072.55	0.0134	0.8156	61.45
666.60	35271.20	897.89	30580.70	1971.05	0.0138	0.8145	61.28
668.25	35418.10	912.51	30750.80	1932.37	0.0137	0.8135	61.08
669.90	35566.10	898.24	30921.20	1956.71	0.0141	0.8135	61.43
671.55	35710.50	848.35	31048.50	1949.95	0.0144	0.8132	62.35
673.20	35851.10	865.06	31133.40	1912.78	0.0139	0.8124	60.59
674.85	35997.60	831.95	31413.80	2018.99	0.0138	0.8117	60.14
676.50	36144.80	889.32	31607.00	2080.62	0.0141	0.8110	61.20
678.15	36288.80	885.24	31687.70	2072.38	0.0130	0.8097	61.26
679.80	36445.20	836.23	31849.70	2067.04	0.0139	0.8081	61.58
681.45	36592.50	810.09	31989.90	2158.78	0.0132	0.8075	63.77
683.10	36747.40	806.34	31982.20	2237.65	0.0137	0.8070	65.79
684.75	36896.70	851.26	31986.70	2054.99	0.0141	0.8065	63.76
686.40	37042.10	800.32	32299.10	1983.75	0.0142	0.8062	63.70
688.05	37185.90	766.21	32448.50	1978.75	0.0143	0.8059	63.63
689.70	37329.30	723.11	32599.40	1973.67	0.0143	0.8051	61.12
691.35	37472.70	728.11	32937.70	2079.30	0.0160	0.8037	60.01
693.00	37601.10	672.57	33194.70	1993.54	0.0156	0.8018	61.16
694.65	37733.20	676.27	33279.80	1978.64	0.0161	0.8006	62.76
696.30	37861.50	632.76	33324.00	1831.02	0.0162	0.8005	63.26
697.95	37989.10	612.80	33446.70	1641.97	0.0177	0.8003	62.50
699.60	38105.50	576.10	33653.00	1579.83	0.0188	0.7998	62.02
701.25	38215.00	591.30	33832.10	1602.17	0.0195	0.7994	61.02
702.90	38321.00	580.37	34057.20	1769.97	0.0164	0.7990	59.60
704.55	38446.80	609.92	34323.20	1753.10	0.0179	0.7983	59.49
706.20	38562.60	598.60	34506.90	1796.46	0.0169	0.7973	61.05
707.85	38685.00	610.51	34555.30	1724.22	0.0176	0.7963	60.81
709.50	38802.70	633.22	34746.40	1819.36	0.0177	0.7958	63.43
711.15	38919.90	617.65	34706.50	1876.67	0.0180	0.7950	64.40
712.80	39035.10	611.41	34798.60	1941.59	0.0175	0.7944	64.41
714.45	39154.10	577.02	34967.60	1803.51	0.0179	0.7937	64.09
716.10	39270.00	608.05	35146.50	1870.40	0.0180	0.7930	64.82
717.75	39385.60	645.35	35248.10	1865.71	0.0162	0.7925	63.93
719.40	39514.20	650.03	35461.70	1874.75	0.0161	0.7917	64.19
721.05	39644.00	657.82	35595.20	1879.73	0.0156	0.7910	64.60
722.70	39778.10	691.03	35714.40	1973.55	0.0148	0.7902	64.08
724.35	39919.20	674.00	35896.40	1975.98	0.0153	0.7896	63.28
726.00	40055.30	663.69	36103.20	1971.51	0.0162	0.7889	64.35
727.65	40184.20	636.43	36178.60	2100.37	0.0161	0.7883	63.30
729.30	40314.50	653.02	36407.20	2002.61	0.0153	0.7876	64.34
730.95	40451.60	672.04	36487.60	2106.55	0.0163	0.7868	64.85
732.60	40580.10	690.42	36604.60	2006.47	0.0145	0.7860	64.55
734.25	40724.70	745.37	36785.00	1910.61	0.0142	0.7855	63.51
735.90	40872.20	767.67	37008.40	1892.09	0.0140	0.7850	64.00
737.55	41022.20	705.70	37121.70	1911.10	0.0149	0.7843	65.20
739.20	41163.50	698.98	37187.10	1905.21	0.0153	0.7832	65.28
740.85	41301.00	699.56	37331.20	1926.89	0.0149	0.7827	65.74
742.50	41442.80	713.72	37445.80	1774.29	0.0141	0.7819	65.14
744.15	41592.20	668.31	37618.80	1848.04	0.0136	0.7811	67.13
745.80	41747.00	707.73	37630.50	1885.94	0.0131	0.7797	67.94
747.45	41908.30	696.46	37719.30	1803.12	0.0128	0.7793	66.55
749.10	42073.90	774.63	37934.00	1500.92	0.0128	0.7793	64.07
750.75	42239.90	725.78	38186.30	1436.10	0.0135	0.7786	63.93
752.40	42396.40	750.59	38303.30	1678.50	0.0140	0.7774	64.63
754.05	42548.20	771.94	38390.10	1503.99	0.0140	0.7763	64.62
755.70	42700.20	816.58	38516.10	1567.31	0.0138	0.7759	65.45
757.35	42854.70	808.68	38589.90	1444.86	0.0150	0.7756	64.15
759.00	42996.40	785.48	38784.20	1451.47	0.0152	0.7751	65.89
760.65	43136.50	792.32	38808.10	1401.49	0.0150	0.7746	65.12
762.30	43278.50	827.64	38969.20	1436.44	0.0145	0.7742	64.47
763.95	43425.20	843.89	39124.10	1393.53	0.0146	0.7737	63.58
765.60	43571.30	826.54	39291.40	1574.24	0.0143	0.7729	63.66
767.25	43720.70	810.45	39408.90	1593.74	0.0142	0.7721	62.50
768.90	43871.10	783.65	39612.00	1675.32	0.0140	0.7715	64.33
770.55	44023.40	773.70	39633.90	1783.52	0.0137	0.7710	65.22
772.20	44179.20	750.05	39713.90	1909.08	0.0135	0.7705	65.75
773.85	44338.20	748.32	39819.80	1690.40	0.0146	0.7697	63.83
775.50	44485.20	723.94	40084.10	1721.87	0.0138	0.7691	65.65
777.15	44640.10	717.29	40106.80	1722.31	0.0144	0.7688	62.84
778.80	44789.10	740.93	40413.50	1567.96	0.0144	0.7677	62.73
780.45	44938.20	696.91	40556.20	1709.39	0.0146	0.7668	62.73
782.10	45085.30	670.32	40702.80	1725.03	0.0153	0.7659	64.21
783.75	45225.90	680.06	40753.20	1709.57	0.0154	0.7655	64.66
785.40	45366.10	681.09	40872.40	1537.75	0.0155	0.7649	63.92
787.05	45505.20	682.32	41074.00	1427.76	0.0161	0.7646	62.97
788.70	45639.40	703.97	41276.50	1486.90	0.0164	0.7641	62.37
790.35	45771.50	662.17	41459.80	1470.42	0.0171	0.7638	61.22
792.00	45897.80	683.01	41694.30	1486.80	0.0178	0.7633	60.80
793.65	46019.50	698.57	41887.40	1490.31	0.0168	0.7626	60.66
795.30	46148.40	703.91	42068.50	1506.32	0.0163	0.7620	62.02
796.95	46280.80	703.93	42133.20	1414.79	0.0168	0.7609	62.30
798.60	46409.50	770.94	42281.90	1361.35	0.0190	0.7598	61.77
800.25	46524.10	760.78	42480.90	1365.90	0.0175	0.7589	61.32
801.90	46648.20	763.66	42668.90	1408.96	0.0169	0.7580	61.36
803.55	46777.20	815.03	42825.80	1334.51	0.0157	0.7570	62.01
805.20	46915.80	843.06	42933.00	1345.16	0.0158	0.7559	61.60
806.85	47053.80	867.54	43106.00	1406.18	0.0153	0.7549	59.74
808.50	47196.50	883.25	43376.40	1465.04	0.0160	0.7541	60.70
810.15	47333.30	864.64	43462.50	1508.26	0.0147	0.7535	59.46
811.80	47482.60	884.94	43698.10	1580.16	0.0143	0.7527	60.42
813.45	47635.90	896.49	43786.50	1645.52	0.0144	0.7520	59.23
815.10	47788.00	887.11	44024.40	1680.62	0.0135	0.7511	59.52
816.75	47950.90	918.78	44164.80	1738.92	0.0120	0.7500	59.71
818.40	48133.50	964.76	44315.70	1818.08	0.0115	0.7491	61.96
820.05	48324.30	970.29	44317.50	1778.46	0.0122	0.7487	61.65
821.70	48505.10	999.57	44489.40	1832.24	0.0128	0.7482	63.56
823.35	48677.60	1018.57	44513.30	1854.87	0.0121	0.7477	64.48
825.00	48860.50	1032.83	44606.30	1792.12	0.0120	0.7472	64.76
826.65	49043.90	1047.40	44740.80	1815.26	0.0132	0.7466	65.62
828.30	49212.00	1072.16	44835.50	1777.11	0.0125	0.7458	65.11
829.95	49389.30	1038.70	45022.30	1684.88	0.0124	0.7448	64.73
831.60	49568.40	1078.62	45194.70	1664.33	0.0124	0.7437	64.61
833.25	49747.80	1075.98	45348.70	1644.46	0.0131	0.7430	64.66
834.90	49917.30	1099.62	45488.50	1590.92	0.0134	0.7426	65.01
836.55	50082.60	1058.01	45604.80	1564.76	0.0134	0.7418	65.61
838.20	50249.20	1080.07	45706.30	1387.66	0.0130	0.7409	63.13
839.85	50420.90	1059.93	45976.80	1470.26	0.0138	0.7402	62.09
841.50	50582.00	1042.73	46167.60	1472.75	0.0138	0.7394	62.60
843.15	50744.10	1042.40	46273.80	1520.50	0.0137	0.7386	64.97
844.80	50907.50	1030.49	46269.80	1306.11	0.0140	0.7378	63.45
846.45	51067.50	1017.13	46481.80	1437.24	0.0137	0.7373	61.98
848.10	51231.10	1011.91	46687.50	1538.06	0.0136	0.7368	61.76
849.75	51395.30	1019.41	46835.70	1539.99	0.0139	0.7360	62.14
851.40	51556.80	985.39	46954.40	1581.62	0.0132	0.7352	62.24
853.05	51726.40	960.44	47092.20	1589.04	0.0138	0.7344	63.45
854.70	51889.00	982.96	47161.80	1603.22	0.0141	0.7337	61.95
856.35	52048.10	954.39	47401.00	1617.76	0.0146	0.7331	61.72
858.00	52202.10	930.67	47570.80	1600.63	0.0143	0.7326	62.18
859.65	52359.20	925.27	47696.00	1824.36	0.0151	0.7319	60.32
861.30	52508.00	902.56	47995.00	1756.13	0.0159	0.7314	58.31
862.95	52649.90	891.30	48352.30	1754.72	0.0160	0.7307	58.81
864.60	52790.70	861.00	48497.00	1704.97	0.0148	0.7300	60.02
866.25	52942.90	866.46	48582.50	1778.80	0.0155	0.7292	59.92
867.90	53089.10	840.19	48772.70	1629.80	0.0157	0.7287	58.58
869.55	53233.70	850.13	49065.90	1688.46	0.0160	0.7285	58.20
871.20	53375.40	814.99	49265.80	1692.96	0.0166	0.7282	59.27
872.85	53512.00	820.77	49360.80	1667.04	0.0153	0.7279	57.91
874.50	53659.70	831.28	49649.70	1581.24	0.0169	0.7277	58.03
876.15	53794.00	817.12	49817.10	1542.86	0.0169	0.7275	58.06
877.80	53927.80	813.78	49983.70	1560.40	0.0177	0.7270	59.41
879.45	54056.20	813.55	50053.30	1584.74	0.0176	0.7268	59.80
881.10	54185.50	809.97	50192.30	1627.74	0.0160	0.7263	59.60
882.75	54327.80	816.86	50380.20	1562.13	0.0150	0.7258	58.86
884.40	54479.10	828.73	50600.10	1644.30	0.0164	0.7259	60.97
886.05	54617.60	818.21	50610.10	1673.27	0.0156	0.7258	60.35
887.70	54763.00	844.48	50818.00	1730.96	0.0156	0.7254	61.51
889.35	54908.80	839.16	50900.80	1725.79	0.0163	0.7247	60.51
891.00	55048.20	866.34	51137.10	1749.94	0.0149	0.7240	60.81
892.65	55200.90	895.36	51283.40	1718.43	0.0144	0.7233	60.26
894.30	55359.60	867.76	51489.20	1778.87	0.0139	0.7227	60.16
895.95	55524.00	878.22	51667.40	1647.28	0.0151	0.7221	59.19
897.60	55674.90	899.65	51904.00	1661.78	0.0157	0.7218	59.87
899.25	55820.80	910.31	52017.90	1612.80	0.0151	0.7211	59.92
900.90	55971.90	927.54	52173.10	1642.92	0.0150	0.7205	60.02
902.55	56124.20	946.49	52325.90	1574.51	0.0145	0.7200	59.62
904.20	56282.20	951.81	52505.80	1549.59	0.0147	0.7193	60.58
905.85	56438.70	969.69	52591.80	1584.93	0.0135	0.7188	61.77
907.50	56609.00	977.30	52662.70	1676.74	0.0136	0.7179	60.41
909.15	56777.40	988.70	52899.60	1610.80	0.0135	0.7172	59.95
910.80	56947.90	1002.93	53080.30	1598.62	0.0143	0.7171	60.48
912.45	57108.30	1008.72	53192.70	1541.65	0.0144	0.7170	60.18
914.10	57268.50	1006.26	53354.30	1466.75	0.0146	0.7164	60.90
915.75	57426.00	1037.83	53451.90	1523.42	0.0149	0.7158	61.11
917.40	57581.10	1040.86	53584.50	1322.45	0.0151	0.7152	59.69
919.05	57733.40	1017.61	53811.00	1329.25	0.0160	0.7150	61.73
920.70	57877.50	1032.02	53827.60	1269.19	0.0158	0.7147	62.26
922.35	58023.50	1017.61	53931.70	1256.68	0.0168	0.7137	62.68
924.00	58160.80	1043.24	54041.90	1338.35	0.0168	0.7136	61.34
925.65	58298.20	1041.78	54252.60	1393.36	0.0154	0.7138	60.24
927.30	58448.50	1057.07	54470.30	1315.77	0.0159	0.7141	61.29
928.95	58593.80	1054.57	54544.80	1387.86	0.0162	0.7140	62.18
930.60	58736.40	1100.48	54630.90	1362.23	0.0152	0.7132	61.45
932.25	58888.50	1100.07	54827.50	1371.75	0.0162	0.7131	62.70
933.90	59031.40	1117.86	54894.50	1394.18	0.0167	0.7131	62.00
935.55	59170.20	1123.27	55079.10	1382.50	0.0174	0.7127	60.39
937.20	59303.30	1153.77	55345.60	1405.81	0.0175	0.7130	60.19
938.85	59435.30	1160.26	55522.00	1305.17	0.0170	0.7128	61.04
940.50	59571.10	1168.48	55618.90	1280.14	0.0180	0.7122	62.17
942.15	59700.10	1182.48	55699.10	1323.61	0.0174	0.7113	62.56
943.80	59833.30	1202.89	55825.80	1330.52	0.0167	0.7102	62.04
945.45	59972.10	1217.17	56017.50	1387.69	0.0170	0.7095	61.60
947.10	60109.00	1244.07	56205.10	1407.29	0.0167	0.7093	61.29
948.75	60248.10	1977.55	56384.00	1525.11	0.0171	0.7088	60.32
950.40	60384.10	1969.20	56624.10	1566.81	0.0166	0.7082	59.59
952.05	60524.80	1962.55	56849.60	1518.61	0.0165	0.7075	59.22
953.70	60666.50	1951.72	57045.50	1552.78	0.0160	0.7065	59.36
955.35	60812.40	1931.54	57201.70	1584.28	0.0173	0.7055	60.52
957.00	60947.80	1971.10	57288.10	1594.30	0.0162	0.7045	60.71
958.65	61092.20	1978.64	57438.50	1591.59	0.0157	0.7034	60.70
960.30	61241.30	1963.28	57599.60	1538.62	0.0157	0.7028	60.33
961.95	61391.20	1952.92	57777.00	1590.48	0.0159	0.7024	61.07
963.60	61539.40	1976.70	57877.90	1608.08	0.0163	0.7017	61.60
965.25	61683.50	2003.84	57994.60	1555.07	0.0163	0.7010	61.83
966.90	61827.60	2091.50	58124.00	1585.63	0.0158	0.7003	62.53
968.55	61977.10	2066.05	58224.20	1632.68	0.0159	0.6997	59.98
970.20	62125.20	2105.03	58530.80	1653.83	0.0161	0.6989	61.16
971.85	62271.80	2162.99	58607.10	1766.52	0.0157	0.6983	61.34
973.50	62422.10	2158.86	58742.50	1674.23	0.0152	0.6978	59.13
975.15	62577.30	2158.75	59030.80	1699.92	0.0154	0.6970	60.72
976.80	62730.70	2209.33	59080.10	1690.74	0.0153	0.6963	61.23
978.45	62885.20	2277.27	59191.90	1742.55	0.0145	0.6957	62.65
980.10	63049.00	2284.25	59248.10	1778.21	0.0142	0.6948	63.23
981.75	63216.70	2274.95	59352.70	1766.09	0.0142	0.6941	61.76
983.40	63383.70	2335.53	59573.50	1846.09	0.0143	0.6935	64.21
985.05	63550.40	2318.38	59573.00	1914.00	0.0135	0.6926	63.62
986.70	63727.10	2359.68	59739.20	1975.75	0.0136	0.6916	62.34
988.35	63902.00	2473.02	59954.00	1974.25	0.0133	0.6905	62.30
990.00	64082.20	2432.41	60099.10	1969.76	0.0125	0.6894	62.11
991.65	64274.40	2358.06	60254.70	1977.90	0.0128	0.6884	61.01
993.30	64461.30	2224.49	60461.00	1964.03	0.0134	0.6874	61.03
994.95	64640.70	2202.42	60606.20	1960.67	0.0151	0.6863	60.16
996.60	64799.90	2225.91	60809.10	1930.56	0.0143	0.6852	59.42
998.25	64968.30	2375.08	60994.50	1984.75	0.0147	0.6842	59.84
999.90	65132.70	2392.23	61120.40	1976.88	0.0131	0.6831	58.35
1001.55	65316.80	2390.42	61367.40	1949.09	0.0127	0.6822	57.63
1003.20	65506.90	2390.75	61564.00	1980.64	0.0128	0.6810	57.84
1004.85	65696.20	2435.58	61701.80	2007.40	0.0127	0.6798	58.37
1006.50	65887.50	2419.48	61820.40	2094.18	0.0123	0.6788	59.11
1008.15	66084.70	2390.75	61929.70	2053.57	0.0131	0.6779	57.55
1009.80	66270.00	2461.54	62177.10	2118.68	0.0124	0.6770	58.38
1011.45	66467.30	2461.38	62278.40	2166.08	0.0122	0.6762	57.90
1013.10	66668.00	2368.87	62464.00	2156.76	0.0123	0.6751	57.75
1014.75	66867.40	2330.52	62634.30	2159.76	0.0120	0.6741	57.01
1016.40	67071.00	2292.26	62840.00	2265.54	0.0120	0.6733	57.34
1018.05	67274.60	2245.71	62983.70	2302.86	0.0119	0.6725	57.30
1019.70	67481.40	2069.28	63157.30	2253.41	0.0125	0.6721	55.72
1021.35	67678.50	2031.63	63434.70	2354.01	0.0129	0.6714	56.25
1023.00	67869.30	1993.86	63570.10	2312.32	0.0129	0.6706	55.67
1024.65	68060.10	1976.03	63792.50	2379.38	0.0129	0.6698	56.51
1026.30	68251.70	1978.86	63912.70	2482.15	0.0126	0.6693	56.25
1027.95	68448.00	1957.44	64117.60	2422.03	0.0127	0.6685	56.01
1029.60	68642.90	1931.63	64331.90	2334.58	0.0130	0.6676	55.70
1031.25	68833.60	1916.00	64544.50	2153.78	0.0133	0.6668	56.05
1032.90	69019.50	1929.73	64696.30	2230.48	0.0138	0.6661	56.48
1034.55	69199.70	1995.69	64833.00	2215.20	0.0135	0.6653	59.89
1036.20	69383.90	2028.10	64776.20	2233.58	0.0125	0.6646	59.26
1037.85	69582.60	1931.39	64990.00	2400.72	0.0145	0.6633	59.23
1039.50	69753.60	2006.21	65167.50	2390.16	0.0146	0.6624	56.96
1041.15	69924.60	2079.20	65532.40	2390.79	0.0136	0.6615	55.89
1042.80	70108.10	2122.64	65809.70	2466.60	0.0130	0.6605	56.06
1044.45	70300.40	2167.78	65997.40	2352.94	0.0131	0.6596	55.33
1046.10	70492.00	2047.56	66248.10	2461.56	0.0134	0.6586	54.63
1047.75	70679.40	1986.62	66505.80	2461.34	0.0144	0.6577	55.65
1049.40	70853.40	1976.31	66630.70	2376.04	0.0152	0.6569	53.52
1051.05	71018.30	1965.55	67008.80	2303.31	0.0150	0.6561	53.00
1052.70	71185.70	1922.52	67259.60	2258.77	0.0152	0.6553	52.94
1054.35	71351.10	1825.74	67475.90	2070.32	0.0159	0.6545	51.86
1056.00	71509.40	1766.11	67760.00	2016.06	0.0162	0.6538	51.60
1057.65	71665.40	1736.32	67974.60	1972.48	0.0172	0.6531	51.02
1059.30	71812.00	1681.38	68214.10	1982.42	0.0178	0.6524	51.61
1060.95	71954.10	1664.32	68368.70	1967.74	0.0183	0.6516	51.93
1062.60	72092.20	1718.96	68543.30	1945.05	0.0168	0.6510	51.92
1064.25	72243.20	1733.36	68741.00	1918.40	0.0164	0.6503	51.39
1065.90	72397.70	1751.17	68972.20	1912.40	0.0169	0.6497	50.78
1067.55	72548.10	1781.12	69200.40	1995.96	0.0161	0.6489	50.57
1069.20	72705.80	1813.85	69406.40	2032.04	0.0165	0.6483	51.15
1070.85	72859.80	1877.88	69563.80	1926.62	0.0163	0.6477	52.12
1072.50	73016.60	1937.06	69675.20	1954.89	0.0161	0.6469	52.40
1074.15	73174.70	1993.19	69831.10	2056.89	0.0157	0.6463	52.37
1075.80	73336.80	2038.02	70013.50	2100.43	0.0153	0.6456	51.01
1077.45	73503.80	2089.16	70308.50	2169.67	0.0145	0.6448	53.13
1079.10	73680.30	2021.79	70345.70	2221.14	0.0144	0.6443	54.71
1080.75	73857.70	1975.50	70422.50	2070.20	0.0149	0.6438	53.53
1082.40	74029.80	1946.02	70698.90	1980.24	0.0154	0.6433	52.76
1084.05	74196.30	1938.82	70924.40	1974.50	0.0160	0.6426	53.05
1085.70	74357.10	1912.91	71075.40	1960.10	0.0161	0.6418	54.07
1087.35	74516.50	1902.29	71180.50	1924.66	0.0162	0.6409	54.89
1089.00	74675.40	1876.68	71298.00	1876.75	0.0162	0.6403	56.62
1090.65	74834.80	1863.04	71355.20	1821.79	0.0166	0.6398	56.13
1092.30	74990.40	1837.62	71546.20	1752.81	0.0168	0.6395	56.61
1093.95	75143.90	1818.19	71674.20	1735.10	0.0183	0.6390	57.84
1095.60	75285.30	1841.83	71753.30	1692.80	0.0180	0.6384	58.19
1097.25	75428.70	1833.31	71881.00	1667.97	0.0183	0.6378	59.40
1098.90	75569.80	1805.62	71959.40	1664.05	0.0185	0.6374	60.30
1100.55	75709.80	1770.70	72051.30	1716.06	0.0199	0.6368	61.22
1102.20	75839.80	1799.68	72148.50	1722.94	0.0191	0.6364	59.79
1103.85	75975.40	1813.81	72388.60	1749.35	0.0178	0.6359	59.35
1105.50	76120.90	1819.60	72568.20	1785.12	0.0173	0.6355	59.92
1107.15	76270.80	1821.31	72693.30	1808.45	0.0166	0.6349	60.38
1108.80	76427.40	1820.05	72824.20	1864.80	0.0168	0.6344	60.32
1110.45	76582.00	1827.51	72986.80	1924.49	0.0161	0.6336	61.03
1112.10	76743.90	1845.98	73105.50	1974.65	0.0157	0.6326	60.53
1113.75	76909.60	1827.19	73303.30	2027.64	0.0148	0.6321	60.05
1115.40	77086.20	1793.38	73502.90	2089.52	0.0147	0.6313	59.00
1117.05	77264.50	1794.39	73755.80	1992.95	0.0158	0.6310	57.30
1118.70	77429.80	1780.22	74044.20	1943.55	0.0153	0.6302	57.11
1120.35	77601.20	1768.47	74226.50	1937.89	0.0157	0.6297	57.85
1122.00	77768.50	1761.82	74345.00	1913.38	0.0162	0.6288	58.14
1123.65	77930.90	1751.21	74491.70	1907.68	0.0158	0.6278	59.29
1125.30	78097.70	1729.68	74586.70	1887.07	0.0162	0.6269	58.73
1126.95	78260.20	1704.01	74784.70	1863.88	0.0171	0.6265	58.87
1128.60	78414.50	1695.33	74935.10	1861.35	0.0174	0.6264	59.27
1130.25	78566.00	1711.16	75067.40	1804.53	0.0177	0.6260	59.29
1131.90	78715.00	1732.08	75215.40	1830.95	0.0167	0.6255	61.12
1133.55	78872.50	1712.89	75261.40	1843.05	0.0166	0.6250	60.91
1135.20	79032.00	1679.80	75418.40	1835.01	0.0173	0.6239	61.61
1136.85	79184.60	1667.57	75528.10	1816.77	0.0180	0.6236	60.96
1138.50	79331.80	1662.66	75704.80	1769.43	0.0184	0.6235	62.00
1140.15	79475.70	1658.38	75784.00	1789.45	0.0181	0.6230	62.37
1141.80	79622.30	1626.79	75900.60	1810.83	0.0191	0.6222	59.60
1143.45	79761.40	1602.77	76200.00	1822.74	0.0198	0.6222	58.82
1145.10	79895.20	1598.62	76399.50	1818.71	0.0201	0.6218	57.31
1146.75	80027.50	1597.00	76647.60	1830.68	0.0195	0.6213	57.57
1148.40	80163.60	1586.39	76797.30	1854.47	0.0193	0.6208	56.37
1150.05	80301.70	1550.32	77049.80	1793.17	0.0203	0.6200	55.72
1151.70	80432.70	1547.89	77275.10	1794.45	0.0211	0.6193	54.39
1153.35	80559.20	1535.79	77530.30	1770.96	0.0201	0.6190	54.05
1155.00	80691.60	1530.68	77722.40	1764.22	0.0214	0.6186	55.52
1156.65	80816.10	1535.71	77798.50	1760.25	0.0204	0.6177	54.50
1158.30	80946.80	1538.37	78030.40	1744.42	0.0203	0.6170	55.11
1159.95	81078.60	1522.74	78161.50	1715.71	0.0216	0.6162	55.55
1161.60	81202.60	1521.89	78299.50	1699.35	0.0204	0.6156	54.93
1163.25	81333.90	1525.15	78491.20	1692.65	0.0210	0.6150	55.14
1164.90	81461.60	1524.52	78632.80	1727.67	0.0208	0.6142	56.23
1166.55	81590.90	1521.17	78726.00	1732.67	0.0212	0.6133	56.23
1168.20	81717.60	1524.03	78888.00	1710.80	0.0208	0.6125	56.50
1169.85	81847.10	1530.17	79036.00	1678.93	0.0201	0.6117	55.12
1171.50	81981.30	1527.78	79268.20	1661.18	0.0198	0.6112	54.53
1173.15	82117.40	1524.09	79446.90	1665.34	0.0210	0.6104	55.29
1174.80	82246.10	1529.41	79555.40	1639.13	0.0204	0.6100	55.77
1176.45	82378.70	1515.34	79675.50	1616.98	0.0212	0.6094	56.22
1178.10	82506.70	1525.18	79793.20	1597.50	0.0224	0.6087	55.42
1179.75	82627.80	1543.43	79968.50	1599.42	0.0219	0.6081	56.34
1181.40	82751.90	1562.06	80059.50	1595.69	0.0208	0.6077	56.99
1183.05	82882.30	1550.22	80165.00	1586.27	0.0210	0.6071	57.37
1184.70	83011.80	1547.78	80286.30	1550.60	0.0221	0.6067	56.83
1186.35	83134.80	1559.17	80446.20	1547.64	0.0228	0.6060	56.04
1188.00	83254.10	1575.45	80614.60	1529.98	0.0221	0.6057	56.85
1189.65	83377.30	1579.33	80708.30	1530.83	0.0226	0.6054	58.47
1191.30	83497.90	1589.53	80759.50	1534.56	0.0225	0.6052	57.18
1192.95	83619.20	1607.60	80950.00	1538.43	0.0219	0.6049	58.24
1194.60	83743.80	1600.54	81032.00	1524.15	0.0224	0.6044	58.49
1196.25	83865.90	1600.12	81150.10	1520.59	0.0234	0.6034	57.35
1197.90	83982.60	1627.83	81337.40	1525.24	0.0237	0.6029	58.57
1199.55	84098.10	1660.51	81410.20	1527.15	0.0227	0.6026	58.75
1201.20	84219.00	1680.35	81532.20	1520.92	0.0219	0.6019	58.64
1202.85	84344.50	1678.51	81667.90	1521.51	0.0215	0.6012	58.17
1204.50	84472.30	1703.05	81822.10	1529.35	0.0229	0.6004	58.97
1206.15	84592.10	1727.22	81920.00	1532.54	0.0210	0.5998	58.79
1207.80	84722.90	1749.73	82067.00	1521.13	0.0223	0.5990	58.11
1209.45	84846.70	1786.00	82233.80	1530.90	0.0214	0.5982	58.13
1211.10	84975.70	1771.02	82368.80	1514.58	0.0203	0.5978	57.87
1212.75	85111.80	1757.83	82510.70	1525.49	0.0211	0.5973	59.61
1214.40	85242.80	1751.68	82558.00	1533.09	0.0208	0.5969	58.93
1216.05	85375.60	1741.14	82712.40	1555.97	0.0216	0.5964	60.01
1217.70	85503.70	1752.73	82791.80	1568.23	0.0201	0.5959	61.40
1219.35	85641.40	1749.62	82859.20	1550.65	0.0200	0.5952	60.21
1221.00	85780.20	1706.41	83046.20	1547.13	0.0198	0.5945	60.20
1222.65	85920.60	1721.77	83171.80	1564.20	0.0212	0.5940	60.56
1224.30	86051.60	1711.40	83278.50	1578.79	0.0198	0.5934	62.33
1225.95	86192.20	1704.50	83325.90	1577.20	0.0197	0.5928	62.11
1227.60	86333.30	1700.47	83459.90	1582.77	0.0195	0.5922	61.72
1229.25	86475.80	1684.41	83601.00	1607.88	0.0191	0.5920	62.97
1230.90	86621.80	1654.54	83669.80	1606.82	0.0193	0.5918	62.64
1232.55	86765.90	1652.09	83809.00	1594.99	0.0198	0.5911	62.48
1234.20	86906.60	1666.69	83938.10	1606.63	0.0189	0.5904	63.85
1235.85	87054.20	1680.42	84000.30	1636.25	0.0190	0.5897	64.03
1237.50	87201.20	1661.01	84112.10	1663.97	0.0180	0.5893	63.52
1239.15	87356.40	1657.50	84258.30	1686.36	0.0186	0.5889	62.83
1240.80	87506.90	1678.94	84417.90	1671.82	0.0186	0.5887	62.67
1242.45	87657.80	1749.31	84549.00	1747.03	0.0179	0.5876	64.20
1244.10	87814.50	1731.49	84609.90	1719.01	0.0162	0.5868	63.16
1245.75	87988.10	1708.89	84789.50	1767.86	0.0180	0.5867	64.37
1247.40	88144.20	1712.61	84861.30	1790.62	0.0174	0.5859	63.03
1249.05	88305.80	1715.26	85059.80	1756.61	0.0177	0.5846	62.91
1250.70	88465.00	1695.86	85204.70	1760.01	0.0176	0.5840	63.12
1252.35	88625.50	1689.67	85330.30	1732.58	0.0182	0.5832	63.56
1254.00	88781.10	1693.65	85444.00	1754.08	0.0175	0.5824	61.81
1255.65	88943.20	1690.64	85666.50	1749.05	0.0175	0.5813	61.81
1257.30	89105.30	1655.62	85811.40	1694.68	0.0178	0.5805	61.35
1258.95	89264.70	1627.70	85975.10	1735.31	0.0188	0.5798	62.50
1260.60	89415.80	1618.55	86057.00	1709.71	0.0191	0.5787	61.12
1262.25	89565.30	1649.81	86271.60	1701.44	0.0178	0.5779	61.00
1263.90	89726.00	1619.51	86423.80	1699.05	0.0185	0.5773	60.86
1265.55	89880.10	1602.87	86579.30	1655.26	0.0197	0.5767	59.73
1267.20	90025.40	1596.00	86783.60	1651.79	0.0187	0.5758	60.59
1268.85	90178.80	1601.34	86886.60	1664.79	0.0189	0.5751	60.27
1270.50	90330.60	1586.93	87052.70	1680.61	0.0194	0.5742	59.98
1272.15	90478.70	1586.21	87221.20	1658.37	0.0199	0.5732	59.45
1273.80	90623.60	1589.74	87408.60	1657.16	0.0190	0.5726	58.53
1275.45	90775.30	1597.29	87610.90	1701.98	0.0188	0.5719	60.08
1277.10	90929.10	1616.28	87685.10	1776.86	0.0186	0.5716	59.43
1278.75	91084.50	1596.34	87886.30	1706.32	0.0174	0.5711	58.27
1280.40	91250.40	1584.97	88117.90	1712.18	0.0190	0.5702	56.98
1282.05	91402.50	1594.36	88354.90	1716.07	0.0190	0.5685	57.19
1283.70	91555.10	1592.87	88512.30	1687.18	0.0182	0.5669	56.84
1285.35	91715.30	1583.63	88699.00	1691.29	0.0179	0.5653	55.98
1287.00	91878.10	1582.24	88914.00	1697.48	0.0191	0.5649	56.97
1288.65	92031.10	1579.64	89023.40	1671.86	0.0184	0.5641	56.26
1290.30	92190.20	1562.42	89227.40	1631.40	0.0191	0.5632	56.02
1291.95	92343.90	1555.96	89397.50	1614.53	0.0199	0.5620	55.85
1293.60	92491.60	1567.60	89561.60	1650.54	0.0193	0.5612	56.49
1295.25	92644.20	1553.67	89692.00	1624.71	0.0204	0.5599	57.26
1296.90	92789.00	1559.87	89814.20	1605.99	0.0204	0.5587	56.03
1298.55	92934.10	1565.53	90029.20	1595.82	0.0207	0.5578	55.80
1300.20	93076.90	1571.71	90199.60	1602.11	0.0210	0.5567	57.31
1301.85	93217.80	1585.74	90279.70	1587.43	0.0202	0.5556	56.85
1303.50	93365.10	1584.02	90457.40	1585.69	0.0205	0.5545	55.06
1305.15	93510.50	1577.95	90698.90	1591.58	0.0212	0.5532	55.73
1306.80	93650.90	1582.70	90823.60	1600.90	0.0213	0.5520	56.71
1308.45	93791.40	1583.44	90933.60	1616.93	0.0203	0.5509	54.82
1310.10	93938.90	1580.25	91200.10	1580.58	0.0210	0.5497	54.82
1311.75	94081.70	1579.48	91362.50	1594.76	0.0208	0.5486	54.02
1313.40	94226.10	1581.47	91561.30	1592.81	0.0211	0.5474	52.02
1315.05	94368.70	1586.98	91836.10	1576.42	0.0206	0.5463	52.94
1316.70	94515.00	1596.88	91950.60	1592.28	0.0203	0.5451	53.50
1318.35	94663.90	1604.48	92082.70	1571.54	0.0201	0.5441	52.32
1320.00	94814.50	1605.90	92305.10	1552.66	0.0190	0.5433	51.70
1321.65	94974.30	1572.65	92488.30	1568.20	0.0227	0.5427	52.92
1323.30	95108.50	1581.82	92582.00	1551.03	0.0217	0.5422	51.95
1324.95	95248.80	1602.02	92778.70	1559.36	0.0206	0.5416	52.38
1326.60	95396.30	1610.35	92906.50	1565.61	0.0191	0.5410	53.02
1328.25	95555.70	1644.55	93022.20	1565.30	0.0189	0.5405	52.44
1329.90	95716.80	1642.49	93192.60	1585.26	0.0191	0.5401	52.88
1331.55	95877.10	1648.41	93319.50	1587.68	0.0191	0.5396	53.29
1333.20	96036.80	1663.86	93448.10	1577.35	0.0196	0.5394	53.58
1334.85	96193.20	1695.58	93578.40	1578.60	0.0189	0.5388	53.65
1336.50	96355.30	1703.27	93718.60	1586.51	0.0198	0.5384	53.06
1338.15	96510.10	1705.60	93892.70	1579.16	0.0187	0.5381	53.90
1339.80	96674.00	1689.17	93999.50	1581.68	0.0186	0.5378	54.44
1341.45	96838.60	1670.62	94118.50	1578.50	0.0190	0.5375	54.81
1343.10	96999.90	1669.47	94246.60	1582.04	0.0192	0.5372	54.20
1344.75	97160.10	1672.91	94420.50	1589.08	0.0187	0.5369	55.39
1346.40	97324.40	1649.16	94511.40	1596.71	0.0194	0.5367	55.53
1348.05	97482.70	1651.73	94654.50	1603.20	0.0199	0.5366	56.24
1349.70	97637.20	1660.02	94771.10	1619.10	0.0194	0.5365	56.14
1351.35	97795.90	1635.78	94933.50	1569.72	0.0193	0.5366	56.26
1353.00	97954.90	1652.03	95068.50	1579.43	0.0206	0.5367	56.25
1354.65	98104.40	1630.50	95207.20	1587.72	0.0193	0.5366	55.51
1356.30	98263.60	1623.70	95388.40	1608.29	0.0207	0.5368	59.47
1357.95	98412.30	1623.38	95345.10	1635.18	0.0205	0.5372	58.85
1359.60	98562.40	1611.66	95529.80	1645.01	0.0204	0.5381	58.52
1361.25	98712.60	1623.27	95703.10	1641.98	0.0216	0.5387	57.70
1362.90	98854.10	1642.61	95903.10	1649.37	0.0203	0.5388	58.40
1364.55	99004.90	1654.01	96026.00	1661.48	0.0208	0.5402	59.25
1366.20	99151.80	1679.19	96130.50	1684.56	0.0210	0.5398	60.22
1367.85	99297.30	1681.59	96242.10	1704.17	0.0203	0.5413	61.39
1369.50	99447.60	1675.74	96332.30	1702.92	0.0210	0.5414	60.62
1371.15	99592.70	1675.06	96528.10	1705.87	0.0220	0.5414	61.82
1372.80	99731.40	1683.70	96627.70	1694.53	0.0225	0.5417	61.01
1374.45	99866.90	1697.63	96833.60	1670.66	0.0220	0.5420	60.26
1376.10	100005.00	1703.77	97032.80	1669.23	0.0225	0.5420	61.15
1377.75	100140.00	1719.15	97145.90	1675.08	0.0231	0.5419	61.04
1379.40	100272.00	1738.00	97316.60	1649.04	0.0232	0.5423	60.60
1381.05	100403.00	1739.36	97495.00	1651.93	0.0235	0.5426	61.06
1382.70	100533.00	1729.55	97625.20	1661.96	0.0231	0.5425	60.93
1384.35	100664.00	1711.62	97790.40	1635.22	0.0237	0.5424	60.19
1386.00	100793.00	1706.88	97986.50	1655.26	0.0230	0.5419	60.38
1387.65	100925.00	1677.24	98131.50	1624.81	0.0228	0.5413	60.18
1389.30	101059.00	1651.29	98301.70	1623.38	0.0246	0.5407	60.17
1390.95	101183.00	1677.28	98454.40	1623.37	0.0256	0.5409	60.00
1392.60	101302.00	1683.55	98611.80	1606.31	0.0236	0.5403	60.13
1394.25	101432.00	1682.45	98756.30	1630.64	0.0232	0.5392	60.69
1395.90	101564.00	1687.26	98879.50	1645.72	0.0234	0.5392	61.89
1397.55	101694.00	1684.52	98971.20	1649.99	0.0229	0.5382	62.94
1399.20	101828.00	1683.34	99074.30	1662.29	0.0230	0.5374	63.91
1400.85	101961.00	1684.16	99178.50	1685.02	0.0218	0.5366	63.45
1402.50	102102.00	1662.55	99352.30	1679.99	0.0224	0.5354	63.12
1404.15	102240.00	1656.09	99523.10	1672.37	0.0220	0.5343	62.66
1405.80	102380.00	1656.93	99690.90	1678.85	0.0213	0.5330	62.61
1407.45	102526.00	1667.22	99836.20	1696.27	0.0211	0.5325	61.93
1409.10	102672.00	1682.48	100007.00	1703.85	0.0200	0.5319	61.37
1410.75	102828.00	1685.35	100169.00	1722.43	0.0186	0.5304	61.77
1412.40	102995.00	1679.82	100291.00	1740.81	0.0184	0.5292	62.77
1414.05	103164.00	1682.06	100386.00	1739.88	0.0192	0.5283	63.37
1415.70	103327.00	1693.08	100495.00	1736.61	0.0197	0.5273	63.46
1417.35	103486.00	1713.69	100627.00	1711.88	0.0194	0.5265	64.01
1419.00	103647.00	1737.17	100738.00	1711.10	0.0197	0.5258	64.57
1420.65	103806.00	1737.32	100848.00	1702.54	0.0198	0.5251	65.13
1422.30	103965.00	1747.94	100962.00	1665.23	0.0207	0.5240	65.73
1423.95	104117.00	1751.96	101075.00	1649.07	0.0207	0.5229	66.14
1425.60	104269.00	1768.57	101188.00	1678.49	0.0211	0.5216	66.42
1427.25	104419.00	1788.71	101303.00	1683.58	0.0198	0.5194	65.81
1428.90	104580.00	1790.20	101469.00	1682.13	0.0204	0.5178	65.59
1430.55	104736.00	1809.86	101618.00	1690.23	0.0207	0.5164	65.29
1432.20	104891.00	1792.35	101770.00	1678.86	0.0198	0.5142	64.97
1433.85	105052.00	1780.28	101928.00	1691.04	0.0211	0.5121	65.80
1435.50	105205.00	1757.85	102043.00	1667.27	0.0210	0.5104	65.90
1437.15	105359.00	1724.62	102187.00	1655.86	0.0215	0.5087	64.96
1438.80	105509.00	1705.06	102377.00	1656.66	0.0221	0.5067	64.45
1440.45	105657.00	1694.18	102556.00	1669.38	0.0231	0.5048	64.21
1442.10	105799.00	1724.86	102728.00	1688.73	0.0213	0.5030	62.37
1443.75	105953.00	1735.71	102992.00	1679.78	0.0209	0.5011	60.85
1445.40	106110.00	1765.81	103249.00	1683.18	0.0206	0.4992	59.71
1447.05	106271.00	1781.14	103476.00	1712.04	0.0200	0.4972	60.06
1448.70	106437.00	1781.26	103631.00	1737.56	0.0195	0.4952	60.92
1450.35	106608.00	1791.60	103761.00	1734.29	0.0196	0.4932	60.18
1452.00	106778.00	1822.06	103967.00	1748.07	0.0185	0.4912	59.04
1453.65	106960.00	1856.77	104182.00	1753.63	0.0178	0.4893	58.08
1455.30	107149.00	1888.85	104386.00	1788.40	0.0172	0.4874	57.36
1456.95	107346.00	1893.55	104589.00	1790.28	0.0168	0.4855	56.82
1458.60	107548.00	1881.90	104780.00	1815.68	0.0170	0.4834	56.52
1460.25	107749.00	1878.67	104962.00	1777.40	0.0168	0.4814	56.64
1461.90	107952.00	1837.79	105125.00	1782.56	0.0168	0.4797	57.96
1463.55	108157.00	1833.57	105228.00	1750.73	0.0177	0.4780	57.41
1465.20	108352.00	1805.15	105415.00	1713.52	0.0174	0.4763	55.59
1466.85	108551.00	1798.60	105650.00	1692.52	0.0182	0.4746	56.26
1468.50	108742.00	1788.81	105773.00	1722.81	0.0177	0.4730	57.04
1470.15	108940.00	1775.68	105899.00	1732.78	0.0181	0.4714	58.04
1471.80	109133.00	1758.70	106018.00	1739.28	0.0180	0.4700	60.10
1473.45	109328.00	1743.75	106092.00	1761.70	0.0180	0.4685	62.40
1475.10	109523.00	1735.37	106156.00	1775.86	0.0177	0.4670	62.16
1476.75	109723.00	1728.20	106338.00	1784.22	0.0180	0.4659	61.76
1478.40	109920.00	1723.69	106533.00	1778.38	0.0177	0.4646	61.29
1480.05	110121.00	1721.66	106735.00	1813.90	0.0173	0.4633	61.46
1481.70	110327.00	1722.06	106913.00	1847.06	0.0172	0.4621	61.94
1483.35	110534.00	1724.65	107083.00	1882.34	0.0171	0.4610	62.31
1485.00	110743.00	1729.58	107265.00	1900.39	0.0170	0.4593	62.09
1486.65	110955.00	1735.66	107491.00	1881.22	0.0168	0.4577	61.76
1488.30	111170.00	1736.53	107722.00	1883.96	0.0168	0.4558	61.43
1489.95	111386.00	1727.02	107958.00	1836.65	0.0174	0.4542	61.24
1491.60	111594.00	1730.76	108185.00	1833.14	0.0181	0.4526	61.19
1493.25	111795.00	1736.65	108395.00	1797.92	0.0172	0.4510	60.83
1494.90	112008.00	1723.78	108623.00	1798.92	0.0175	0.4494	60.61
1496.55	112218.00	1719.90	108839.00	1780.63	0.0185	0.4480	61.05
1498.20	112417.00	1722.34	109021.00	1771.66	0.0177	0.4468	61.09
1499.85	112625.00	1713.17	109222.00	1748.37	0.0182	0.4458	59.60
1501.50	112829.00	1699.45	109503.00	1736.08	0.0195	0.4447	59.02
1503.15	113020.00	1695.82	109741.00	1727.52	0.0198	0.4436	60.21
1504.80	113207.00	1697.36	109883.00	1724.21	0.0206	0.4427	60.95
1506.45	113388.00	1698.79	110050.00	1721.86	0.0201	0.4418	61.16
1508.10	113574.00	1699.25	110249.00	1721.29	0.0204	0.4410	60.63
1509.75	113757.00	1682.69	110491.00	1723.69	0.0204	0.4404	60.24
1511.40	113941.00	1685.69	110727.00	1729.06	0.0223	0.4402	60.51
1513.05	114109.00	1678.44	110925.00	1735.21	0.0216	0.4408	60.60
1514.70	114282.00	1675.89	111129.00	1738.19	0.0225	0.4408	61.01
1516.35	114448.00	1678.89	111321.00	1730.42	0.0226	0.4402	61.66
1518.00	114614.00	1678.19	111500.00	1720.95	0.0221	0.4395	62.15
1519.65	114784.00	1680.22	111683.00	1740.08	0.0227	0.4388	62.21
1521.30	114950.00	1679.23	111892.00	1733.68	0.0228	0.4381	62.16
1522.95	115116.00	1677.27	112112.00	1714.87	0.0228	0.4375	61.95
1524.60	115281.00	1676.84	112332.00	1725.38	0.0231	0.4368	61.22
1526.25	115445.00	1668.64	112582.00	1716.42	0.0233	0.4362	60.99
1527.90	115607.00	1670.80	112805.00	1699.66	0.0249	0.4355	62.08
1529.55	115759.00	1663.44	112946.00	1698.45	0.0244	0.4349	62.68
1531.20	115915.00	1658.05	113110.00	1692.60	0.0251	0.4341	63.28
1532.85	116066.00	1653.63	113271.00	1700.46	0.0256	0.4334	63.64
1534.50	116215.00	1650.79	113441.00	1698.04	0.0255	0.4327	63.91
1536.15	116365.00	1652.65	113619.00	1699.65	0.0267	0.4319	64.40
1537.80	116508.00	1660.05	113783.00	1679.50	0.0274	0.4311	64.64
1539.45	116648.00	1657.44	113960.00	1686.43	0.0265	0.4302	64.64
1541.10	116793.00	1656.47	114135.00	1677.08	0.0274	0.4294	64.90
1542.75	116933.00	1657.34	114300.00	1675.74	0.0274	0.4286	64.81
1544.40	117074.00	1651.84	114476.00	1679.48	0.0271	0.4279	64.34
1546.05	117216.00	1649.97	114668.00	1677.70	0.0291	0.4271	65.07
1547.70	117349.00	1655.51	114811.00	1680.79	0.0283	0.4261	65.70
1549.35	117485.00	1654.51	114956.00	1679.16	0.0272	0.4251	65.03
1551.00	117628.00	1657.44	115156.00	1676.80	0.0288	0.4242	64.95
1552.65	117763.00	1658.42	115330.00	1676.85	0.0275	0.4232	65.31
1554.30	117905.00	1655.61	115485.00	1665.76	0.0279	0.4224	66.00
1555.95	118045.00	1652.87	115623.00	1671.47	0.0284	0.4215	66.41
1557.60	118182.00	1651.51	115765.00	1663.12	0.0300	0.4207	65.23
1559.25	118313.00	1652.57	115971.00	1656.17	0.0291	0.4199	63.63
1560.90	118448.00	1654.76	116187.00	1650.43	0.0286	0.4189	62.63
1562.55	118586.00	1654.57	116379.00	1652.83	0.0283	0.4180	64.09
1564.20	118725.00	1653.46	116474.00	1655.66	0.0292	0.4172	66.72
1565.85	118861.00	1651.63	116526.00	1662.42	0.0298	0.4163	66.93
1567.50	118994.00	1650.10	116664.00	1656.77	0.0310	0.4152	66.84
1569.15	119122.00	1656.97	116818.00	1656.41	0.0293	0.4141	66.40
1570.80	119258.00	1656.81	116980.00	1657.72	0.0290	0.4130	66.14
1572.45	119395.00	1654.34	117137.00	1647.87	0.0302	0.4118	66.06
1574.10	119528.00	1649.63	117284.00	1651.78	0.0316	0.4111	66.61
1575.75	119655.00	1655.82	117404.00	1658.69	0.0302	0.4104	66.92
1577.40	119788.00	1659.33	117536.00	1651.91	0.0300	0.4095	67.34
1579.05	119923.00	1661.33	117667.00	1659.79	0.0300	0.4083	67.07
1580.70	120057.00	1658.00	117821.00	1657.60	0.0311	0.4069	66.48
1582.35	120188.00	1657.48	117990.00	1653.61	0.0313	0.4058	65.74
1584.00	120318.00	1655.92	118159.00	1651.32	0.0321	0.4047	65.08
1585.65	120445.00	1659.40	118318.00	1652.61	0.0314	0.4038	64.26
1587.30	120575.00	1660.27	118486.00	1655.38	0.0309	0.4030	64.41
1588.95	120708.00	1656.77	118623.00	1654.27	0.0318	0.4024	65.27
1590.60	120836.00	1656.09	118736.00	1653.37	0.0329	0.4027	66.09
1592.25	120961.00	1660.27	118843.00	1652.26	0.0323	0.4026	66.51
1593.90	121088.00	1667.45	118963.00	1647.97	0.0317	0.4024	66.58
1595.55	121218.00	1672.70	119091.00	1656.92	0.0307	0.4020	66.29
1597.20	121351.00	1672.30	119238.00	1657.14	0.0305	0.4022	65.89
1598.85	121486.00	1670.00	119387.00	1654.69	0.0308	0.4015	66.02
1600.50	121619.00	1666.04	119519.00	1649.20	0.0330	0.4015	65.89
1602.15	121744.00	1672.25	119651.00	1655.71	0.0320	0.4017	64.88
1603.80	121872.00	1673.05	119816.00	1660.04	0.0319	0.4007	65.05
1605.45	122001.00	1670.48	119950.00	1661.66	0.0326	0.4003	65.97
1607.10	122127.00	1669.84	120057.00	1658.00	0.0329	0.4004	66.14
1608.75	122253.00	1672.36	120182.00	1657.59	0.0332	0.4005	66.37
1610.40	122377.00	1677.77	120303.00	1655.49	0.0328	0.4007	67.10
1612.05	122502.00	1676.01	120407.00	1658.57	0.0317	0.4008	67.02
1613.70	122632.00	1679.39	120539.00	1661.46	0.0327	0.4008	67.08
1615.35	122758.00	1677.65	120668.00	1657.19	0.0319	0.4007	66.44
1617.00	122887.00	1678.89	120819.00	1655.58	0.0328	0.4002	66.53
1618.65	123013.00	1676.40	120944.00	1659.36	0.0325	0.4001	67.23
1620.30	123140.00	1675.24	121050.00	1665.04	0.0341	0.3995	67.56
1621.95	123261.00	1678.22	121171.00	1672.71	0.0341	0.3986	67.17
1623.60	123382.00	1681.34	121321.00	1672.68	0.0333	0.3986	66.85
1625.25	123507.00	1678.65	121466.00	1670.87	0.0331	0.3986	66.78
1626.90	123632.00	1673.73	121601.00	1664.95	0.0364	0.3982	67.35
1628.55	123746.00	1680.12	121712.00	1671.70	0.0361	0.3976	67.51
1630.20	123861.00	1696.08	121838.00	1673.85	0.0347	0.3974	67.46
1631.85	123980.00	1695.96	121969.00	1670.75	0.0318	0.3973	67.02
1633.50	124111.00	1696.29	122110.00	1669.54	0.0322	0.3972	66.88
1635.15	124240.00	1694.81	122240.00	1671.82	0.0322	0.3969	66.27
1636.80	124369.00	1695.75	122384.00	1678.08	0.0339	0.3964	66.22
1638.45	124492.00	1707.99	122514.00	1675.81	0.0317	0.3960	65.80
1640.10	124624.00	1710.70	122659.00	1680.19	0.0320	0.3954	65.55
1641.75	124754.00	1706.95	122796.00	1676.70	0.0320	0.3952	65.33
1643.40	124884.00	1708.97	122931.00	1679.95	0.0333	0.3948	65.45
1645.05	125010.00	1714.73	123056.00	1674.50	0.0324	0.3943	65.16
1646.70	125139.00	1727.76	123192.00	1675.70	0.0319	0.3938	64.87
1648.35	125271.00	1737.31	123324.00	1680.51	0.0304	0.3931	64.48
1650.00	125409.00	1743.25	123462.00	1682.46	0.0322	0.3931	64.57
1651.65	125539.00	1754.01	123584.00	1672.12	0.0323	0.3932	64.49
1653.30	125669.00	1763.20	123704.00	1676.13	0.0318	0.3931	65.57
1654.95	125801.00	1776.32	123789.00	1684.33	0.0324	0.3928	67.11
1656.60	125930.00	1797.44	123864.00	1696.55	0.0298	0.3924	66.61
1658.25	126071.00	1786.55	124001.00	1695.86	0.0322	0.3920	66.25
1659.90	126202.00	1771.69	124145.00	1696.43	0.0338	0.3915	65.63
1661.55	126327.00	1769.06	124296.00	1693.88	0.0355	0.3907	66.45
1663.20	126446.00	1770.34	124402.00	1696.57	0.0366	0.3899	67.95
1664.85	126561.00	1778.21	124485.00	1707.85	0.0367	0.3892	67.85
1666.50	126677.00	1782.09	124623.00	1710.71	0.0350	0.3886	67.49
1668.15	126799.00	1783.96	124768.00	1706.56	0.0355	0.3881	67.38
1669.80	126918.00	1792.98	124904.00	1709.37	0.0342	0.3876	66.21
1671.45	127043.00	1778.38	125067.00	1717.63	0.0367	0.3869	66.10
1673.10	127159.00	1775.38	125205.00	1737.02	0.0359	0.3860	66.68
1674.75	127278.00	1755.89	125326.00	1737.55	0.0356	0.3852	67.04
1676.40	127399.00	1747.20	125454.00	1746.38	0.0390	0.3841	66.20
1678.05	127509.00	1746.53	125615.00	1760.88	0.0395	0.3831	65.97
1679.70	127618.00	1745.03	125759.00	1767.12	0.0393	0.3821	65.63
1681.35	127728.00	1747.39	125905.00	1799.31	0.0382	0.3813	65.34
1683.00	127841.00	1742.38	126057.00	1788.16	0.0383	0.3803	65.12
1684.65	127954.00	1731.74	126201.00	1771.72	0.0411	0.3793	64.08
1686.30	128060.00	1727.84	126359.00	1768.39	0.0412	0.3785	63.69
1687.95	128166.00	1725.90	126491.00	1771.35	0.0418	0.3780	63.64
1689.60	128270.00	1726.43	126610.00	1782.94	0.0407	0.3776	63.32
1691.25	128378.00	1722.68	126739.00	1781.30	0.0400	0.3772	63.84
1692.90	128487.00	1721.40	126847.00	1786.15	0.0398	0.3768	66.03
1694.55	128597.00	1722.20	126909.00	1794.17	0.0386	0.3763	66.11
1696.20	128711.00	1723.89	127034.00	1778.62	0.0396	0.3757	65.64
1697.85	128822.00	1725.18	127166.00	1775.21	0.0393	0.3753	65.06
1699.50	128934.00	1730.55	127302.00	1751.76	0.0414	0.3749	64.98
1701.15	129040.00	1736.43	127424.00	1745.98	0.0373	0.3743	64.76
1702.80	129158.00	1736.56	127543.00	1746.75	0.0400	0.3738	65.70
1704.45	129268.00	1743.08	127631.00	1744.74	0.0396	0.3733	66.68
1706.10	129380.00	1749.73	127718.00	1747.76	0.0390	0.3730	66.83
1707.75	129493.00	1752.66	127829.00	1743.56	0.0372	0.3728	66.42
1709.40	129612.00	1753.69	127953.00	1731.77	0.0391	0.3726	66.38
1711.05	129726.00	1760.55	128061.00	1727.80	0.0380	0.3727	67.16
1712.70	129842.00	1767.76	128148.00	1725.52	0.0375	0.3726	68.49
1714.35	129960.00	1773.62	128222.00	1727.08	0.0372	0.3725	69.07
1716.00	130079.00	1780.94	128314.00	1725.85	0.0373	0.3726	69.22
1717.65	130198.00	1793.28	128418.00	1720.67	0.0359	0.3725	68.24
1719.30	130322.00	1802.83	128552.00	1722.09	0.0347	0.3724	67.96
1720.95	130450.00	1810.73	128672.00	1722.38	0.0342	0.3729	68.28
1722.60	130579.00	1821.38	128774.00	1726.38	0.0332	0.3736	68.43
1724.25	130712.00	1828.19	128878.00	1723.77	0.0316	0.3742	68.14
1725.90	130851.00	1836.30	128992.00	1737.67	0.0321	0.3750	67.35
1727.55	130988.00	1846.61	129122.00	1734.32	0.0316	0.3758	67.59
1729.20	131127.00	1857.20	129225.00	1740.71	0.0315	0.3767	68.33
1730.85	131266.00	1879.23	129313.00	1745.54	0.0311	0.3775	67.72
1732.50	131407.00	1910.02	129437.00	1753.34	0.0278	0.3784	66.66
1734.15	131564.00	1936.50	129578.00	1751.64	0.0277	0.3793	66.22
1735.80	131721.00	1965.85	129700.00	1758.94	0.0268	0.3802	66.27
1737.45	131883.00	1969.93	129810.00	1765.97	0.0254	0.3811	66.50
1739.10	132053.00	1984.57	129918.00	1772.05	0.0271	0.3820	66.48
1740.75	132212.00	2015.77	130033.00	1776.30	0.0257	0.3830	66.30
1742.40	132380.00	2043.98	130152.00	1788.16	0.0250	0.3838	67.04
1744.05	132552.00	2084.28	130249.00	1798.89	0.0237	0.3845	67.08
1745.70	132733.00	2121.15	130369.00	1805.38	0.0232	0.3854	66.76
1747.35	132917.00	2144.98	130502.00	1814.21	0.0229	0.3864	66.61
1749.00	133104.00	2122.04	130632.00	1826.35	0.0223	0.3871	66.41
1750.65	133295.00	2162.43	130770.00	1829.54	0.0237	0.3877	66.46
1752.30	133474.00	2169.69	130903.00	1840.67	0.0214	0.3882	65.85
1753.95	133673.00	2172.29	131059.00	1851.57	0.0219	0.3885	65.76
1755.60	133867.00	2196.89	131199.00	1863.11	0.0209	0.3886	64.89
1757.25	134070.00	2226.02	131367.00	1903.31	0.0203	0.3880	63.87
1758.90	134279.00	2265.76	131561.00	1935.92	0.0199	0.3874	62.81
1760.55	134493.00	2309.36	131762.00	1973.56	0.0193	0.3866	61.85
1762.20	134715.00	2377.03	131970.00	1967.32	0.0180	0.3858	60.85
1763.85	134952.00	2422.20	132176.00	2009.89	0.0168	0.3852	60.34
1765.50	135207.00	2412.34	132365.00	2040.50	0.0167	0.3846	60.22
1767.15	135463.00	2431.58	132546.00	2083.00	0.0169	0.3838	60.62
1768.80	135717.00	2494.16	132715.00	2118.78	0.0159	0.3830	60.22
1770.45	135989.00	2550.14	132921.00	2145.49	0.0146	0.3823	59.47
1772.10	136285.00	2527.41	133147.00	2116.58	0.0150	0.3815	59.03
1773.75	136572.00	2520.82	133358.00	2181.89	0.0147	0.3808	58.52
1775.40	136867.00	2550.51	133573.00	2159.34	0.0148	0.3800	58.17
1777.05	137160.00	2570.03	133791.00	2187.45	0.0144	0.3791	58.03
1778.70	137463.00	2589.95	134003.00	2213.57	0.0142	0.3783	58.01
1780.35	137771.00	2618.09	134217.00	2252.97	0.0137	0.3775	56.37
1782.00	138089.00	2688.86	134516.00	2314.05	0.0134	0.3766	55.16
1783.65	138416.00	2736.91	134812.00	2407.82	0.0124	0.3758	55.38
1785.30	138770.00	2735.07	135050.00	2432.30	0.0124	0.3750	55.92
1786.95	139124.00	2757.68	135282.00	2402.86	0.0126	0.3742	55.00
1788.60	139474.00	2768.77	135597.00	2452.71	0.0123	0.3735	54.40
1790.25	139835.00	2755.34	135904.00	2558.50	0.0123	0.3726	54.43
1791.90	140195.00	2770.43	136199.00	2529.39	0.0124	0.3717	52.56
1793.55	140552.00	2810.44	136619.00	2519.74	0.0119	0.3708	51.86
1795.20	140926.00	2812.86	136969.00	2563.15	0.0119	0.3699	51.92
1796.85	141301.00	2789.10	137269.00	2573.96	0.0119	0.3689	51.92
1798.50	141677.00	2800.28	137584.00	2599.91	0.0126	0.3680	52.06
1800.15	142031.00	2854.44	137894.00	2630.09	0.0124	0.3670	51.98
1801.80	142395.00	2800.69	138232.00	2731.89	0.0118	0.3663	51.87
1803.45	142776.00	2748.06	138589.00	2741.61	0.0129	0.3653	52.13
1805.10	143127.00	2742.56	138932.00	2729.25	0.0122	0.3647	52.35
1806.75	143497.00	2775.44	139274.00	2779.88	0.0129	0.3639	52.56
1808.40	143849.00	2851.61	139621.00	2760.63	0.0124	0.3631	51.42
1810.05	144215.00	2868.79	140081.00	2749.24	0.0125	0.3624	51.65
1811.70	144578.00	2861.74	140429.00	2813.61	0.0133	0.3619	52.61
1813.35	144920.00	2886.58	140724.00	2806.02	0.0132	0.3612	52.78
1815.00	145267.00	2912.38	141093.00	2818.53	0.0132	0.3605	53.01
1816.65	145614.00	2961.49	141459.00	2766.79	0.0136	0.3600	53.45
1818.30	145952.00	3065.03	141797.00	2818.71	0.0129	0.3591	53.07
1819.95	146308.00	3076.16	142195.00	2879.30	0.0133	0.3585	53.05
1821.60	146653.00	3075.45	142576.00	2729.58	0.0137	0.3577	53.01
1823.25	146991.00	3115.99	142954.00	2764.57	0.0149	0.3573	53.22
1824.90	147300.00	3129.16	143303.00	2720.05	0.0143	0.3566	52.98
1826.55	147624.00	3224.27	143690.00	2830.86	0.0139	0.3559	52.92
1828.20	147958.00	3340.52	144063.00	2879.64	0.0131	0.3557	52.79
1829.85	148311.00	3352.66	144440.00	2852.69	0.0140	0.3552	53.39
1831.50	148642.00	3395.94	144752.00	2873.13	0.0146	0.3548	53.38
1833.15	148961.00	3445.98	145101.00	2900.97	0.0145	0.3541	52.46
1834.80	149283.00	3467.54	145524.00	2930.07	0.0140	0.3537	51.96
1836.45	149618.00	3508.58	145905.00	3063.31	0.0139	0.3533	51.98
1838.10	149954.00	3505.73	146261.00	3076.43	0.0141	0.3527	51.60
1839.75	150287.00	3521.37	146643.00	3074.19	0.0152	0.3522	51.47
1841.40	150595.00	3557.26	146996.00	3116.57	0.0156	0.3519	50.50
1843.05	150896.00	3583.51	147375.00	3132.25	0.0155	0.3511	52.31
1844.70	151200.00	3664.81	147582.00	3208.91	0.0149	0.3507	51.94
1846.35	151515.00	3703.95	147944.00	3340.45	0.0148	0.3501	52.97
1848.00	151833.00	3719.64	148227.00	3341.94	0.0149	0.3494	52.43
1849.65	152150.00	3739.24	148608.00	3390.55	0.0148	0.3488	50.88
1851.30	152470.00	3786.03	149039.00	3458.27	0.0146	0.3484	51.43
1852.95	152795.00	3782.62	149330.00	3469.32	0.0145	0.3478	52.94
1854.60	153123.00	3801.53	149564.00	3509.45	0.0149	0.3469	52.91
1856.25	153443.00	3817.84	149912.00	3503.75	0.0149	0.3463	51.84
1857.90	153762.00	3875.75	150324.00	3523.13	0.0149	0.3456	52.02
1859.55	154082.00	3844.45	150626.00	3561.15	0.0139	0.3450	52.01
1861.20	154426.00	3885.87	150934.00	3586.60	0.0143	0.3444	53.32
1862.85	154762.00	3847.06	151161.00	3658.96	0.0131	0.3437	54.05
1864.50	155130.00	3832.62	151433.00	3700.12	0.0138	0.3431	54.03
1866.15	155479.00	3802.28	151759.00	3715.48	0.0128	0.3426	53.28
1867.80	155855.00	3754.74	152131.00	3736.39	0.0129	0.3420	53.08
1869.45	156230.00	3710.88	152470.00	3786.04	0.0131	0.3415	53.15
1871.10	156600.00	3701.49	152795.00	3782.62	0.0134	0.3409	53.06
1872.75	156961.00	3734.69	153135.00	3802.20	0.0120	0.3403	52.73
1874.40	157365.00	3722.60	153482.00	3819.83	0.0124	0.3398	52.77
1876.05	157756.00	3707.38	153805.00	3884.23	0.0128	0.3392	53.27
1877.70	158135.00	3681.49	154098.00	3842.13	0.0128	0.3386	52.71
1879.35	158517.00	3703.30	154488.00	3894.12	0.0132	0.3380	52.22
1881.00	158888.00	3711.20	154874.00	3827.95	0.0132	0.3373	52.01
1882.65	159259.00	3605.10	155258.00	3834.96	0.0152	0.3367	51.74
1884.30	159580.00	3589.96	155646.00	3777.73	0.0148	0.3360	51.01
1885.95	159913.00	3493.62	156085.00	3729.49	0.0157	0.3354	51.18
1887.60	160226.00	3441.99	156451.00	3682.53	0.0163	0.3348	50.34
1889.25	160528.00	3449.10	156883.00	3737.55	0.0163	0.3343	50.59
1890.90	160831.00	3480.21	157265.00	3723.54	0.0152	0.3336	50.80
1892.55	161156.00	3499.02	157650.00	3719.92	0.0151	0.3330	50.97
1894.20	161484.00	3504.06	158027.00	3675.30	0.0143	0.3323	48.64
1895.85	161832.00	3522.38	158592.00	3707.59	0.0143	0.3317	50.02
1897.50	162179.00	3524.01	158868.00	3717.94	0.0138	0.3310	50.66
1899.15	162541.00	3455.21	159199.00	3607.21	0.0136	0.3301	50.18
1900.80	162910.00	3352.07	159567.00	3594.15	0.0149	0.3296	51.36
1902.45	163245.00	3285.32	159827.00	3508.96	0.0158	0.3289	50.49
1904.10	163563.00	3269.51	160206.00	3441.53	0.0160	0.3281	49.82
1905.75	163878.00	3251.08	160556.00	3449.77	0.0159	0.3274	52.33
1907.40	164194.00	3220.81	160714.00	3480.92	0.0156	0.3269	54.57
1909.05	164519.00	3212.76	160893.00	3479.84	0.0151	0.3262	54.65
1910.70	164853.00	3177.13	161221.00	3503.70	0.0140	0.3255	53.76
1912.35	165215.00	3154.24	161621.00	3504.26	0.0137	0.3248	53.44
1914.00	165587.00	3106.29	161999.00	3536.72	0.0122	0.3242	53.51
1915.65	166003.00	3023.50	162356.00	3511.56	0.0128	0.3237	52.70
1917.30	166403.00	2963.18	162785.00	3381.21	0.0126	0.3227	52.09
1918.95	166808.00	2972.19	163182.00	3288.39	0.0129	0.3222	51.34
1920.60	167205.00	2993.71	163555.00	3270.28	0.0127	0.3216	53.62
1922.25	167608.00	3016.12	163736.00	3253.35	0.0126	0.3211	54.82
1923.90	168016.00	3003.04	163983.00	3249.41	0.0132	0.3204	55.88
1925.55	168407.00	3021.81	164243.00	3214.20	0.0126	0.3199	55.28
1927.20	168817.00	3020.19	164614.00	3212.27	0.0136	0.3195	55.13
1928.85	169196.00	3081.41	164970.00	3159.82	0.0143	0.3187	55.02
1930.50	169559.00	3110.69	165354.00	3151.09	0.0138	0.3182	53.30
1932.15	169936.00	3012.82	165887.00	3048.61	0.0152	0.3176	53.37
1933.80	170277.00	2968.24	166294.00	2960.76	0.0151	0.3173	51.39
1935.45	170622.00	2971.19	166854.00	2973.22	0.0145	0.3168	52.48
1937.10	170981.00	2972.48	167175.00	2992.01	0.0148	0.3160	52.32
1938.75	171335.00	3013.92	167600.00	3016.40	0.0145	0.3155	52.40
1940.40	171697.00	3068.16	168008.00	3002.63	0.0140	0.3150	52.61
1942.05	172071.00	3113.76	168389.00	3021.88	0.0137	0.3143	52.43
1943.70	172453.00	3143.01	168822.00	3020.18	0.0130	0.3138	52.34
1945.35	172857.00	3124.72	169214.00	3084.24	0.0132	0.3132	51.92
1947.00	173256.00	3033.71	169614.00	3114.92	0.0126	0.3128	53.28
1948.65	173674.00	2893.30	169898.00	3018.89	0.0131	0.3122	53.73
1950.30	174079.00	2799.46	170220.00	2967.49	0.0152	0.3117	53.29
1951.95	174427.00	2793.83	170599.00	2972.55	0.0159	0.3113	55.13
1953.60	174760.00	2863.21	170837.00	2958.33	0.0153	0.3108	54.90
1955.25	175108.00	2960.41	171215.00	2995.41	0.0142	0.3101	53.97
1956.90	175483.00	2867.08	171644.00	3061.70	0.0136	0.3098	53.65
1958.55	175874.00	2794.54	172044.00	3111.10	0.0138	0.3097	54.09
1960.20	176260.00	2694.99	172395.00	3145.64	0.0131	0.3094	53.34
1961.85	176667.00	2605.70	172856.00	3124.82	0.0136	0.3088	52.84
1963.50	177060.00	2544.14	173302.00	3023.23	0.0139	0.3088	51.87
1965.15	177444.00	2495.79	173793.00	2851.85	0.0146	0.3084	51.73
1966.80	177809.00	2502.82	174194.00	2778.30	0.0145	0.3081	50.71
1968.45	178179.00	2552.88	174603.00	2805.58	0.0146	0.3079	51.32
1970.10	178545.00	2643.58	174908.00	2917.23	0.0134	0.3075	53.19
1971.75	178946.00	2666.81	175141.00	2967.59	0.0140	0.3071	53.38
1973.40	179331.00	2637.92	175508.00	2859.59	0.0146	0.3067	52.30
1975.05	179700.00	2568.89	175981.00	2775.44	0.0162	0.3063	51.18
1976.70	180033.00	2533.57	176463.00	2636.43	0.0176	0.3059	50.17
1978.35	180340.00	2570.98	176942.00	2564.23	0.0169	0.3053	49.92
1980.00	180660.00	2561.90	177352.00	2494.42	0.0188	0.3051	49.47
1981.65	180947.00	2574.18	177755.00	2500.45	0.0182	0.3049	50.35
1983.30	181244.00	2610.88	178067.00	2513.99	0.0178	0.3046	50.86
1984.95	181549.00	2666.24	178402.00	2630.51	0.0171	0.3044	51.23
1986.60	181866.00	2698.75	178765.00	2663.75	0.0157	0.3041	51.10
1988.25	182211.00	2665.86	179170.00	2670.59	0.0150	0.3038	50.41
1989.90	182573.00	2628.72	179596.00	2584.05	0.0159	0.3035	49.62
1991.55	182915.00	2639.23	179991.00	2526.55	0.0158	0.3030	49.89
1993.20	183260.00	2692.08	180290.00	2576.12	0.0150	0.3026	50.98
1994.85	183623.00	2656.24	180549.00	2549.54	0.0155	0.3021	53.71
1996.50	183977.00	2643.35	180708.00	2567.16	0.0155	0.3016	53.09
1998.15	184330.00	2654.26	181035.00	2576.74	0.0151	0.3011	52.61
1999.80	184693.00	2639.54	181366.00	2630.75	0.0148	0.3006	53.79
2001.45	185065.00	2595.12	181612.00	2678.53	0.0154	0.3003	52.80
2003.10	185421.00	2592.07	182001.00	2709.46	0.0151	0.2999	52.52
2004.75	185784.00	2561.44	182375.00	2631.77	0.0150	0.2999	50.86
2006.40	186152.00	2522.28	182832.00	2624.74	0.0146	0.2998	49.95
2008.05	186528.00	2494.53	183234.00	2694.91	0.0148	0.2996	51.33
2009.70	186900.00	2460.37	183507.00	2665.10	0.0145	0.2994	51.52
2011.35	187281.00	2469.60	183854.00	2638.64	0.0151	0.2990	50.95
2013.00	187645.00	2508.36	184248.00	2653.77	0.0153	0.2985	51.39
2014.65	188006.00	2551.68	184586.00	2655.78	0.0152	0.2980	50.97
2016.30	188370.00	2556.26	184988.00	2595.03	0.0158	0.2974	50.64
2017.95	188722.00	2526.42	185376.00	2595.50	0.0172	0.2967	51.40
2019.60	189047.00	2541.92	185697.00	2571.29	0.0170	0.2960	51.01
2021.25	189374.00	2540.47	186097.00	2526.33	0.0184	0.2952	50.40
2022.90	189678.00	2534.74	186522.00	2495.10	0.0194	0.2945	50.28
2024.55	189967.00	2534.61	186911.00	2459.40	0.0215	0.2938	50.85
2026.20	190229.00	2504.95	187259.00	2467.32	0.0196	0.2932	50.64
2027.85	190516.00	2460.56	187645.00	2508.39	0.0182	0.2924	50.40
2029.50	190826.00	2424.94	188032.00	2554.73	0.0175	0.2917	51.41
2031.15	191149.00	2423.47	188339.00	2559.17	0.0183	0.2908	51.33
2032.80	191459.00	2444.46	188706.00	2525.60	0.0172	0.2899	51.53
2034.45	191789.00	2455.80	189029.00	2542.04	0.0167	0.2889	52.18
2036.10	192130.00	2457.83	189329.00	2539.84	0.0170	0.2879	53.44
2037.75	192468.00	2447.79	189579.00	2543.40	0.0155	0.2870	54.01
2039.40	192839.00	2345.60	189853.00	2519.40	0.0159	0.2862	55.81
2041.05	193202.00	2295.18	190051.00	2545.83	0.0165	0.2852	57.38
2042.70	193553.00	2259.52	190252.00	2499.56	0.0174	0.2843	58.63
2044.35	193887.00	2168.29	190486.00	2463.95	0.0195	0.2837	56.00
2046.00	194186.00	2155.41	190946.00	2411.12	0.0188	0.2829	54.91
2047.65	194495.00	2131.72	191331.00	2434.55	0.0171	0.2819	55.17
2049.30	194838.00	2117.21	191649.00	2459.23	0.0174	0.2811	54.69
2050.95	195175.00	2118.23	192022.00	2450.10	0.0159	0.2804	54.57
2052.60	195545.00	2056.63	192376.00	2475.42	0.0162	0.2795	54.08
2054.25	195909.00	2020.53	192779.00	2353.98	0.0161	0.2787	52.59
2055.90	196278.00	1990.76	193243.00	2289.49	0.0167	0.2780	53.20
2057.55	196634.00	1967.95	193566.00	2258.31	0.0170	0.2770	53.77
2059.20	196985.00	1963.22	193877.00	2168.83	0.0181	0.2763	54.51
2060.85	197315.00	1953.70	194147.00	2153.19	0.0193	0.2755	56.99
2062.50	197625.00	1966.55	194335.00	2164.15	0.0182	0.2747	58.08
2064.15	197954.00	1960.71	194609.00	2108.65	0.0192	0.2738	55.13
2065.80	198269.00	1964.22	195124.00	2127.91	0.0193	0.2731	55.98
2067.45	198582.00	1963.86	195446.00	2066.40	0.0193	0.2723	54.17
2069.10	198896.00	1960.53	195931.00	2018.34	0.0206	0.2716	54.16
2070.75	199191.00	1965.35	196309.00	1988.30	0.0209	0.2708	54.69
2072.40	199483.00	1963.99	196643.00	1967.40	0.0223	0.2698	54.74
2074.05	199757.00	1970.16	197001.00	1963.02	0.0223	0.2689	55.38
2075.70	200033.00	1973.11	197306.00	1953.21	0.0225	0.2680	56.71
2077.35	200306.00	1971.17	197559.00	1968.26	0.0233	0.2672	56.93
2079.00	200571.00	1976.72	197882.00	1959.85	0.0240	0.2664	57.37
2080.65	200830.00	1982.35	198187.00	1963.50	0.0234	0.2655	57.96
2082.30	201095.00	1986.49	198480.00	1966.06	0.0236	0.2647	57.46
2083.95	201359.00	1988.00	198827.00	1958.60	0.0234	0.2639	57.73
2085.60	201627.00	1991.58	199122.00	1966.92	0.0244	0.2631	58.85
2087.25	201884.00	2012.04	199371.00	1961.24	0.0243	0.2622	59.76
2088.90	202143.00	2032.02	199621.00	1967.39	0.0231	0.2613	59.73
2090.55	202416.00	2038.11	199906.00	1973.18	0.0238	0.2605	60.46
2092.20	202682.00	2046.26	200157.00	1973.03	0.0239	0.2597	61.09
2093.85	202948.00	2050.52	200408.00	1969.88	0.0237	0.2589	60.19
2095.50	203216.00	2046.90	200715.00	1982.75	0.0241	0.2582	61.74
2097.15	203481.00	2049.01	200920.00	1982.03	0.0235	0.2576	60.74
2098.80	203753.00	2053.61	201232.00	1990.00	0.0221	0.2569	61.26
2100.45	204044.00	2055.96	201483.00	1986.07	0.0207	0.2562	61.19
2102.10	204356.00	2064.49	201755.00	1996.49	0.0206	0.2557	60.71
2103.75	204669.00	2085.33	202037.00	2030.49	0.0199	0.2552	61.73
2105.40	204995.00	2093.13	202267.00	2033.81	0.0189	0.2547	60.76
2107.05	205337.00	2093.65	202581.00	2042.83	0.0189	0.2543	60.45
2108.70	205680.00	2106.65	202863.00	2052.39	0.0192	0.2540	61.13
2110.35	206018.00	2115.38	203106.00	2047.03	0.0190	0.2537	60.83
2112.00	206360.00	2127.63	203388.00	2046.70	0.0203	0.2533	60.79
2113.65	206682.00	2137.56	203662.00	2053.49	0.0200	0.2530	60.67
2115.30	207007.00	2144.43	203956.00	2053.88	0.0213	0.2528	59.32
2116.95	207314.00	2161.84	204328.00	2062.65	0.0218	0.2526	58.05
2118.60	207612.00	2155.59	204706.00	2087.78	0.0217	0.2522	57.90
2120.25	207914.00	2185.89	205045.00	2094.06	0.0214	0.2520	57.15
2121.90	208219.00	2194.85	205430.00	2093.52	0.0224	0.2518	56.16
2123.55	208512.00	2186.62	205825.00	2114.29	0.0225	0.2518	56.29
2125.20	208803.00	2203.32	206159.00	2116.17	0.0220	0.2516	56.46
2126.85	209102.00	2209.93	206486.00	2134.75	0.0224	0.2516	56.41
2128.50	209395.00	2221.25	206812.00	2139.42	0.0223	0.2515	57.76
2130.15	209688.00	2214.56	207067.00	2145.97	0.0240	0.2514	57.32
2131.80	209962.00	2230.02	207393.00	2166.96	0.0233	0.2514	58.76
2133.45	210244.00	2235.86	207627.00	2154.85	0.0234	0.2513	59.17
2135.10	210524.00	2237.09	207910.00	2185.78	0.0242	0.2512	58.92
2136.75	210795.00	2240.47	208227.00	2195.10	0.0244	0.2512	58.74
2138.40	211064.00	2242.88	208529.00	2186.12	0.0247	0.2511	59.59
2140.05	211330.00	2247.51	208783.00	2202.91	0.0244	0.2510	59.86
2141.70	211599.00	2248.96	209070.00	2208.66	0.0247	0.2509	59.25
2143.35	211866.00	2245.48	209392.00	2221.34	0.0256	0.2509	59.65
2145.00	212122.00	2244.51	209667.00	2213.32	0.0272	0.2509	59.59
2146.65	212363.00	2252.73	209945.00	2229.56	0.0262	0.2508	61.05
2148.30	212615.00	2253.82	210165.00	2235.70	0.0249	0.2507	60.48
2149.95	212879.00	2253.65	210470.00	2236.32	0.0261	0.2507	60.69
2151.60	213131.00	2256.66	210735.00	2240.17	0.0254	0.2506	61.07
2153.25	213390.00	2256.37	210990.00	2241.47	0.0253	0.2505	61.41
2154.90	213650.00	2257.59	211245.00	2246.33	0.0255	0.2504	61.77
2156.55	213909.00	2262.30	211499.00	2249.84	0.0251	0.2505	61.48
2158.20	214172.00	2266.56	211777.00	2247.40	0.0246	0.2503	61.79
2159.85	214440.00	2265.93	212026.00	2241.99	0.0242	0.2502	62.38
2161.50	214713.00	2263.19	212252.00	2247.93	0.0252	0.2500	63.28
2163.15	214975.00	2266.93	212467.00	2257.18	0.0252	0.2500	62.95
2164.80	215237.00	2273.40	212737.00	2251.04	0.0249	0.2500	61.97
2166.45	215502.00	2277.92	213033.00	2256.47	0.0237	0.2498	62.69
2168.10	215781.00	2270.85	213263.00	2256.91	0.0258	0.2496	62.32
2169.75	216038.00	2282.40	213539.00	2255.73	0.0247	0.2493	62.21
2171.40	216305.00	2283.37	213805.00	2260.19	0.0248	0.2492	61.67
2173.05	216572.00	2283.36	214089.00	2265.98	0.0257	0.2490	62.04
2174.70	216830.00	2288.17	214342.00	2267.77	0.0271	0.2486	61.50
2176.35	217075.00	2307.44	214640.00	2262.14	0.0273	0.2483	61.21
2178.00	217318.00	2331.72	214920.00	2266.15	0.0264	0.2480	62.08
2179.65	217570.00	2354.11	215151.00	2269.39	0.0255	0.2476	62.01
2181.30	217831.00	2385.96	215421.00	2281.93	0.0247	0.2472	61.75
2182.95	218101.00	2387.05	215711.00	2267.51	0.0235	0.2467	60.66
2184.60	218386.00	2424.59	216020.00	2282.29	0.0237	0.2461	62.43
2186.25	218669.00	2464.56	216222.00	2283.52	0.0220	0.2455	61.54
2187.90	218974.00	2488.41	216530.00	2282.98	0.0211	0.2448	61.70
2189.55	219294.00	2524.75	216790.00	2285.36	0.0213	0.2441	62.16
2191.20	219611.00	2586.71	217026.00	2302.05	0.0205	0.2434	62.86
2192.85	219942.00	2654.40	217252.00	2327.07	0.0189	0.2426	63.06
2194.50	220302.00	2696.70	217502.00	2344.50	0.0191	0.2419	62.30
2196.15	220658.00	2748.13	217797.00	2385.82	0.0199	0.2411	61.41
2197.80	221003.00	2751.44	218109.00	2387.08	0.0191	0.2403	60.53
2199.45	221363.00	2878.61	218438.00	2431.60	0.0185	0.2396	60.37
2201.10	221735.00	2929.07	218741.00	2474.73	0.0180	0.2389	59.26
2202.75	222120.00	2964.25	219108.00	2496.26	0.0172	0.2382	58.10
2204.40	222523.00	3018.08	219489.00	2554.75	0.0167	0.2374	58.19
2206.05	222938.00	3039.11	219819.00	2640.70	0.0156	0.2365	57.23
2207.70	223386.00	3023.20	220229.00	2686.12	0.0157	0.2356	55.93
2209.35	223833.00	3006.18	220663.00	2748.80	0.0150	0.2346	56.06
2211.00	224301.00	3014.70	221013.00	2751.52	0.0147	0.2336	56.57
2212.65	224782.00	3090.91	221359.00	2878.14	0.0148	0.2328	56.15
2214.30	225260.00	3124.58	221765.00	2933.15	0.0143	0.2320	54.78
2215.95	225756.00	3161.24	222241.00	2974.86	0.0147	0.2309	54.44
2217.60	226241.00	3195.55	222682.00	3042.28	0.0154	0.2299	53.62
2219.25	226708.00	3188.52	223175.00	3036.19	0.0158	0.2290	52.82
2220.90	227164.00	3156.68	223685.00	3004.73	0.0175	0.2281	51.00
2222.55	227578.00	3079.25	224278.00	3010.54	0.0190	0.2272	52.09
2224.20	227961.00	3115.12	224698.00	3085.00	0.0178	0.2264	50.97
2225.85	228369.00	3171.99	225264.00	3124.82	0.0173	0.2255	50.46
2227.50	228792.00	3183.00	225806.00	3164.91	0.0155	0.2247	50.65
2229.15	229265.00	3096.23	226288.00	3198.90	0.0151	0.2240	50.72
2230.80	229754.00	3006.79	226761.00	3187.22	0.0145	0.2232	51.69
2232.45	230265.00	2908.44	227167.00	3156.48	0.0152	0.2226	52.43
2234.10	230752.00	2893.75	227547.00	3077.03	0.0181	0.2220	54.50
2235.75	231163.00	2881.41	227834.00	3097.81	0.0165	0.2214	56.56
2237.40	231614.00	2788.07	228129.00	3138.01	0.0150	0.2209	54.94
2239.05	232112.00	2671.72	228642.00	3210.55	0.0154	0.2203	54.77
2240.70	232599.00	2613.62	229116.00	3123.47	0.0163	0.2197	52.30
2242.35	233061.00	2575.45	229772.00	3003.52	0.0174	0.2192	51.67
2244.00	233494.00	2513.17	230331.00	2895.78	0.0170	0.2187	50.93
2245.65	233938.00	2444.82	230854.00	2893.25	0.0171	0.2182	52.02
2247.30	234380.00	2402.21	231218.00	2879.32	0.0179	0.2177	55.38
2248.95	234804.00	2367.20	231476.00	2821.57	0.0187	0.2173	53.69
2250.60	235210.00	2339.87	232077.00	2675.87	0.0186	0.2168	51.80
2252.25	235619.00	2310.55	232689.00	2602.99	0.0188	0.2164	52.29
2253.90	236024.00	2286.22	233122.00	2570.91	0.0208	0.2160	53.50
2255.55	236392.00	2273.07	233493.00	2513.33	0.0211	0.2156	55.05
2257.20	236755.00	2255.60	233853.00	2453.16	0.0206	0.2152	54.68
2258.85	237127.00	2241.07	234321.00	2407.21	0.0223	0.2148	54.76
2260.50	237471.00	2231.96	234749.00	2370.84	0.0227	0.2145	55.37
2262.15	237810.00	2224.69	235129.00	2345.65	0.0225	0.2143	56.63
2263.80	238153.00	2215.10	235474.00	2321.03	0.0224	0.2139	56.81
2265.45	238497.00	2205.23	235876.00	2291.93	0.0226	0.2137	56.82
2267.10	238839.00	2200.17	236260.00	2277.09	0.0235	0.2135	58.23
2268.75	239168.00	2192.48	236561.00	2267.88	0.0229	0.2132	58.97
2270.40	239506.00	2185.39	236897.00	2246.64	0.0239	0.2129	58.58
2272.05	239830.00	2183.51	237279.00	2237.40	0.0243	0.2126	60.00
2273.70	240149.00	2182.35	237562.00	2229.38	0.0239	0.2123	59.83
2275.35	240475.00	2168.60	237914.00	2222.72	0.0238	0.2119	60.38
2277.00	240802.00	2165.47	238237.00	2212.40	0.0269	0.2115	59.62
2278.65	241092.00	2173.88	238619.00	2201.85	0.0262	0.2110	60.24
2280.30	241390.00	2172.12	238936.00	2199.42	0.0267	0.2107	60.08
2281.95	241684.00	2157.82	239279.00	2189.15	0.0279	0.2102	60.30
2283.60	241965.00	2143.17	239609.00	2183.68	0.0292	0.2095	60.62
2285.25	242235.00	2134.55	239926.00	2183.43	0.0311	0.2089	61.03
2286.90	242489.00	2130.06	240238.00	2181.91	0.0317	0.2084	60.89
2288.55	242739.00	2109.91	240577.00	2162.86	0.0366	0.2077	60.79
2290.20	242956.00	2104.33	240902.00	2166.63	0.0372	0.2072	60.54
2291.85	243170.00	2097.47	241211.00	2178.42	0.0373	0.2067	62.72
2293.50	243384.00	2095.19	241432.00	2170.67	0.0374	0.2063	62.93
2295.15	243598.00	2095.08	241721.00	2155.92	0.0362	0.2057	63.04
2296.80	243819.00	2097.69	242003.00	2141.18	0.0356	0.2050	64.12
2298.45	244045.00	2103.30	242244.00	2134.31	0.0340	0.2043	64.99
2300.10	244283.00	2113.97	242477.00	2131.20	0.0328	0.2036	66.47
2301.75	244530.00	2138.85	242689.00	2111.03	0.0333	0.2028	66.60
2303.40	244775.00	2195.49	242916.00	2105.96	0.0305	0.2019	69.59
2305.05	245043.00	2273.79	243059.00	2100.09	0.0277	0.2009	70.16
2306.70	245339.00	2263.17	243268.00	2095.14	0.0252	0.2000	70.36
2308.35	245667.00	2263.36	243485.00	2095.24	0.0241	0.1992	70.34
2310.00	246010.00	2278.02	243710.00	2094.93	0.0229	0.1986	69.58
2311.65	246374.00	2327.36	243961.00	2101.26	0.0213	0.1980	69.83
2313.30	246765.00	2439.95	244193.00	2106.86	0.0200	0.1975	68.17
2314.95	247182.00	2549.58	244491.00	2130.34	0.0181	0.1968	68.46
2316.60	247645.00	2568.72	244734.00	2182.96	0.0160	0.1962	67.71
2318.25	248170.00	2551.60	245029.00	2274.28	0.0164	0.1956	65.10
2319.90	248686.00	2539.44	245431.00	2259.87	0.0171	0.1952	62.57
2321.55	249181.00	2578.37	245872.00	2266.40	0.0178	0.1947	61.45
2323.20	249658.00	2689.45	246282.00	2300.78	0.0170	0.1943	60.40
2324.85	250157.00	2766.74	246720.00	2428.23	0.0163	0.1938	59.02
2326.50	250679.00	2813.62	247213.00	2557.69	0.0152	0.1934	57.78
2328.15	251241.00	2831.71	247764.00	2571.76	0.0144	0.1932	55.80
2329.80	251833.00	2824.39	248410.00	2539.70	0.0143	0.1929	54.18
2331.45	252433.00	2839.40	249016.00	2539.13	0.0147	0.1925	56.11
2333.10	253018.00	2966.69	249398.00	2629.91	0.0134	0.1922	57.03
2334.75	253660.00	2995.96	249837.00	2730.22	0.0133	0.1918	57.38
2336.40	254307.00	2960.82	250329.00	2786.39	0.0137	0.1914	55.83
2338.05	254938.00	2876.78	250972.00	2836.52	0.0134	0.1912	54.66
2339.70	255581.00	2873.53	251634.00	2824.67	0.0144	0.1909	52.85
2341.35	256181.00	2909.25	252365.00	2823.64	0.0135	0.1906	52.68
2343.00	256820.00	2836.52	252968.00	2963.88	0.0136	0.1905	52.87
2344.65	257456.00	2860.57	253594.00	2999.54	0.0130	0.1901	52.05
2346.30	258121.00	2844.29	254309.00	2960.70	0.0137	0.1901	51.13
2347.95	258756.00	2864.46	255007.00	2867.50	0.0138	0.1899	51.96
2349.60	259386.00	2798.11	255592.00	2873.65	0.0134	0.1899	52.33
2351.25	260035.00	2737.41	256167.00	2911.89	0.0140	0.1899	54.48
2352.90	260657.00	2757.71	256647.00	2824.13	0.0149	0.1899	54.51
2354.55	261239.00	2782.11	257283.00	2869.60	0.0139	0.1900	55.31
2356.20	261866.00	2763.24	257875.00	2838.66	0.0138	0.1902	54.97
2357.85	262495.00	2697.54	258542.00	2853.93	0.0138	0.1904	56.29
2359.50	263124.00	2682.02	259074.00	2880.17	0.0148	0.1905	56.97
2361.15	263709.00	2761.97	259659.00	2726.34	0.0157	0.1901	54.30
2362.80	264260.00	2844.48	260498.00	2751.04	0.0150	0.1895	52.15
2364.45	264840.00	2914.75	261246.00	2782.37	0.0160	0.1891	51.18
2366.10	265384.00	2961.40	261951.00	2760.62	0.0166	0.1890	49.68
2367.75	265910.00	2976.23	262690.00	2674.96	0.0184	0.1889	49.11
2369.40	266385.00	3097.93	263344.00	2685.61	0.0176	0.1888	48.99
2371.05	266882.00	3170.04	263925.00	2807.36	0.0173	0.1889	49.27
2372.70	267389.00	3226.72	264470.00	2867.67	0.0166	0.1888	51.11
2374.35	267915.00	3290.64	264922.00	2925.18	0.0164	0.1889	50.50
2376.00	268447.00	3388.15	265499.00	2970.37	0.0150	0.1889	52.11
2377.65	269029.00	3439.09	265926.00	2976.47	0.0158	0.1889	52.97
2379.30	269581.00	3468.13	266355.00	3093.10	0.0148	0.1887	55.19
2380.95	270170.00	3497.99	266727.00	3152.55	0.0154	0.1886	54.23
2382.60	270738.00	3526.49	267288.00	3215.65	0.0151	0.1883	53.83
2384.25	271320.00	3516.57	267840.00	3276.43	0.0147	0.1880	53.13
2385.90	271916.00	3503.41	268418.00	3385.59	0.0149	0.1880	52.33
2387.55	272503.00	3502.89	269050.00	3440.95	0.0146	0.1879	50.86
2389.20	273103.00	3459.32	269704.00	3474.42	0.0143	0.1878	51.61
2390.85	273715.00	3404.31	270242.00	3501.61	0.0142	0.1876	50.89
2392.50	274335.00	3374.37	270863.00	3532.76	0.0143	0.1875	51.16
2394.15	274951.00	3314.67	271430.00	3512.67	0.0145	0.1875	50.70
2395.80	275560.00	3234.47	272056.00	3500.74	0.0146	0.1872	50.39
2397.45	276162.00	3173.20	272673.00	3503.71	0.0147	0.1873	50.77
2399.10	276761.00	3103.79	273248.00	3444.39	0.0153	0.1868	49.75
2400.75	277340.00	2993.87	273943.00	3384.80	0.0149	0.1869	49.62
2402.40	277932.00	2835.17	274570.00	3368.12	0.0144	0.1867	49.65
2404.05	278544.00	2844.82	275184.00	3282.07	0.0156	0.1866	49.77
2405.70	279109.00	2823.40	275783.00	3206.15	0.0144	0.1864	49.87
2407.35	279722.00	2744.30	276382.00	3154.13	0.0149	0.1863	50.53
2409.00	280316.00	2663.59	276932.00	3081.18	0.0152	0.1861	50.65
2410.65	280901.00	2640.14	277510.00	2957.56	0.0173	0.1860	51.77
2412.30	281412.00	2679.73	278031.00	2806.35	0.0164	0.1858	50.89
2413.95	281954.00	2723.76	278697.00	2856.33	0.0154	0.1856	51.27
2415.60	282532.00	2722.37	279252.00	2811.95	0.0163	0.1854	52.57
2417.25	283079.00	2714.03	279778.00	2736.26	0.0167	0.1852	51.82
2418.90	283613.00	2696.49	280424.00	2649.11	0.0171	0.1848	51.99
2420.55	284135.00	2685.00	280992.00	2638.43	0.0174	0.1843	53.74
2422.20	284651.00	2685.51	281410.00	2679.54	0.0176	0.1838	55.05
2423.85	285161.00	2654.65	281883.00	2723.93	0.0176	0.1835	53.45
2425.50	285671.00	2633.45	282562.00	2722.29	0.0175	0.1827	52.98
2427.15	286186.00	2637.76	283150.00	2712.90	0.0182	0.1820	53.88
2428.80	286685.00	2610.66	283643.00	2695.46	0.0189	0.1813	54.37
2430.45	287166.00	2583.29	284149.00	2684.72	0.0186	0.1809	55.01
2432.10	287656.00	2561.79	284635.00	2686.44	0.0189	0.1804	54.88
2433.75	288140.00	2560.98	285162.00	2654.60	0.0201	0.1801	55.29
2435.40	288597.00	2596.63	285652.00	2633.30	0.0196	0.1794	54.95
2437.05	289067.00	2632.15	286198.00	2637.87	0.0198	0.1789	55.79
2438.70	289533.00	2621.49	286661.00	2612.05	0.0199	0.1780	56.15
2440.35	289999.00	2663.96	287139.00	2584.52	0.0217	0.1776	56.13
2442.00	290428.00	2685.49	287637.00	2561.83	0.0209	0.1767	56.09
2443.65	290874.00	2793.68	288138.00	2560.77	0.0209	0.1760	56.73
2445.30	291323.00	2823.98	288573.00	2594.71	0.0187	0.1753	56.92
2446.95	291827.00	2847.92	289045.00	2632.66	0.0185	0.1744	56.44
2448.60	292338.00	2840.19	289550.00	2621.11	0.0174	0.1734	56.07
2450.25	292884.00	2888.95	290046.00	2668.42	0.0173	0.1724	56.95
2451.90	293437.00	2960.73	290450.00	2686.47	0.0160	0.1715	58.14
2453.55	294037.00	3015.55	290854.00	2792.37	0.0165	0.1705	57.18
2455.20	294623.00	3043.07	291368.00	2827.05	0.0162	0.1694	55.68
2456.85	295225.00	3017.18	291972.00	2854.50	0.0173	0.1683	55.31
2458.50	295791.00	3006.87	292533.00	2832.55	0.0191	0.1675	54.32
2460.15	296306.00	3031.64	293152.00	2932.07	0.0171	0.1663	54.01
2461.80	296887.00	3026.61	293770.00	2994.26	0.0170	0.1654	52.51
2463.45	297474.00	3050.97	294468.00	3050.02	0.0160	0.1640	53.02
2465.10	298103.00	3056.70	295062.00	3023.28	0.0172	0.1628	52.21
2466.75	298691.00	3018.97	295704.00	2999.22	0.0174	0.1616	53.91
2468.40	299277.00	2958.29	296162.00	3039.82	0.0186	0.1603	56.13
2470.05	299830.00	2921.83	296623.00	3013.74	0.0186	0.1591	53.77
2471.70	300389.00	2884.34	297366.00	3049.99	0.0169	0.1578	52.17
2473.35	301006.00	2799.49	298110.00	3056.75	0.0166	0.1564	52.50
2475.00	301641.00	2750.04	298705.00	3018.07	0.0179	0.1551	53.98
2476.65	302236.00	2713.81	299234.00	2961.15	0.0186	0.1537	54.25
2478.30	302812.00	2696.00	299800.00	2923.47	0.0190	0.1524	55.76
2479.95	303381.00	2690.34	300304.00	2896.12	0.0197	0.1511	55.04
2481.60	303935.00	2629.91	300981.00	2801.39	0.0198	0.1497	52.78
2483.25	304492.00	2578.40	301766.00	2740.31	0.0211	0.1484	53.41
2484.90	305020.00	2513.51	302348.00	2707.48	0.0190	0.1470	54.57
2486.55	305611.00	2472.77	302890.00	2694.06	0.0183	0.1457	55.64
2488.20	306231.00	2367.89	303428.00	2689.98	0.0164	0.1445	56.11
2489.85	306929.00	2291.56	303984.00	2624.10	0.0168	0.1430	56.45
2491.50	307615.00	2242.27	304549.00	2573.30	0.0172	0.1415	57.61
2493.15	308291.00	2215.07	305054.00	2509.15	0.0169	0.1401	57.96
2494.80	308986.00	2181.09	305659.00	2469.63	0.0161	0.1383	57.26
2496.45	309726.00	2135.65	306371.00	2343.04	0.0162	0.1368	54.87
2498.10	310471.00	2111.68	307239.00	2262.95	0.0167	0.1352	56.17
2499.75	311202.00	2112.23	307883.00	2227.56	0.0164	0.1337	57.30
2501.40	311955.00	2101.55	308539.00	2207.52	0.0167	0.1322	57.03
2503.05	312701.00	2078.50	309304.00	2162.34	0.0178	0.1308	56.82
2504.70	313409.00	2071.71	310096.00	2112.28	0.0195	0.1296	57.26
2506.35	314060.00	2071.10	310839.00	2111.08	0.0197	0.1287	58.82
2508.00	314712.00	2074.61	311511.00	2113.21	0.0204	0.1279	60.53
2509.65	315345.00	2073.58	312184.00	2095.53	0.0205	0.1272	60.52
2511.30	315978.00	2076.33	312938.00	2070.65	0.0228	0.1267	59.96
2512.95	316550.00	2120.58	313668.00	2072.29	0.0244	0.1262	59.42
2514.60	317086.00	2170.98	314356.00	2070.20	0.0217	0.1257	58.92
2516.25	317692.00	2190.27	315036.00	2078.63	0.0209	0.1254	58.70
2517.90	318322.00	2216.36	315687.00	2068.02	0.0207	0.1251	58.72
2519.55	318958.00	2236.97	316291.00	2085.25	0.0187	0.1247	58.66
2521.20	319666.00	2248.32	316853.00	2162.05	0.0190	0.1246	59.32
2522.85	320365.00	2258.42	317402.00	2183.07	0.0192	0.1245	60.16
2524.50	321055.00	2266.64	317981.00	2197.44	0.0200	0.1242	61.08
2526.15	321721.00	2277.73	318579.00	2230.65	0.0214	0.1241	61.86
2527.80	322343.00	2297.64	319205.00	2241.07	0.0225	0.1239	60.95
2529.45	322936.00	2316.95	319962.00	2252.96	0.0230	0.1238	59.65
2531.10	323517.00	2336.74	320727.00	2263.32	0.0242	0.1237	59.17
2532.75	324067.00	2355.48	321430.00	2270.42	0.0246	0.1239	60.07
2534.40	324608.00	2344.89	322026.00	2285.42	0.0255	0.1240	61.05
2536.05	325130.00	2354.45	322589.00	2307.09	0.0266	0.1243	62.05
2537.70	325628.00	2362.85	323125.00	2322.32	0.0279	0.1244	63.08
2539.35	326104.00	2385.59	323652.00	2341.70	0.0272	0.1249	63.87
2541.00	326590.00	2396.20	324158.00	2358.47	0.0282	0.1252	64.78
2542.65	327058.00	2403.74	324652.00	2343.56	0.0298	0.1255	65.92
2544.30	327500.00	2415.24	325122.00	2354.34	0.0302	0.1260	66.48
2545.95	327933.00	2433.32	325590.00	2360.93	0.0298	0.1265	66.19
2547.60	328371.00	2448.07	326069.00	2384.81	0.0296	0.1269	65.97
2549.25	328810.00	2475.85	326554.00	2395.65	0.0305	0.1273	66.01
2550.90	329236.00	2489.78	327016.00	2402.74	0.0313	0.1277	66.35
2552.55	329649.00	2490.26	327439.00	2412.59	0.0302	0.1283	66.39
2554.20	330074.00	2506.86	327862.00	2431.24	0.0318	0.1284	65.81
2555.85	330478.00	2515.69	328319.00	2444.63	0.0298	0.1286	64.93
2557.50	330910.00	2519.63	328783.00	2474.96	0.0296	0.1289	64.00
2559.15	331342.00	2528.84	329236.00	2489.79	0.0303	0.1291	63.26
2560.80	331764.00	2521.57	329670.00	2490.28	0.0311	0.1294	62.54
2562.45	332174.00	2548.06	330114.00	2508.47	0.0296	0.1297	61.67
2564.10	332603.00	2579.73	330545.00	2517.01	0.0285	0.1299	60.73
2565.75	333048.00	2588.71	331004.00	2520.30	0.0290	0.1303	60.22
2567.40	333485.00	2579.81	331445.00	2531.45	0.0320	0.1305	62.50
2569.05	333881.00	2566.97	331787.00	2520.83	0.0347	0.1306	65.18
2570.70	334244.00	2549.41	332109.00	2542.07	0.0378	0.1308	66.75
2572.35	334578.00	2535.00	332479.00	2575.94	0.0379	0.1308	65.73
2574.00	334912.00	2521.36	332955.00	2590.49	0.0406	0.1307	64.69
2575.65	335223.00	2525.53	333431.00	2581.40	0.0393	0.1306	64.93
2577.30	335544.00	2534.03	333826.00	2569.79	0.0395	0.1304	65.77
2578.95	335864.00	2547.96	334172.00	2551.86	0.0405	0.1303	66.98
2580.60	336177.00	2568.01	334482.00	2541.34	0.0386	0.1301	67.74
2582.25	336506.00	2587.34	334798.00	2520.52	0.0354	0.1299	68.54
2583.90	336864.00	2602.90	335100.00	2522.74	0.0338	0.1297	69.28
2585.55	337240.00	2623.91	335401.00	2529.58	0.0310	0.1295	69.72
2587.20	337651.00	2672.75	335713.00	2539.23	0.0284	0.1294	70.11
2588.85	338100.00	2764.48	336021.00	2556.97	0.0256	0.1293	70.04
2590.50	338598.00	2809.41	336345.00	2579.82	0.0241	0.1292	69.80
2592.15	339129.00	2901.44	336698.00	2596.29	0.0230	0.1290	69.47
2593.80	339684.00	2993.35	337078.00	2611.34	0.0209	0.1289	67.74
2595.45	340295.00	3045.73	337531.00	2646.39	0.0187	0.1288	65.69
2597.10	340980.00	3062.17	338043.00	2759.39	0.0173	0.1286	63.78
2598.75	341724.00	3088.94	338614.00	2810.82	0.0157	0.1283	61.84
2600.40	342540.00	3113.08	339234.00	2920.00	0.0134	0.1281	59.73
2602.05	343501.00	2917.13	339906.00	3029.60	0.0130	0.1278	57.87
2603.70	344496.00	2876.17	340649.00	3060.35	0.0137	0.1276	56.20
2605.35	345439.00	2868.95	341467.00	3064.83	0.0138	0.1273	54.55
2607.00	346378.00	2960.53	342370.00	3149.71	0.0143	0.1271	52.79
2608.65	347288.00	3017.53	343438.00	2919.72	0.0146	0.1268	51.20
2610.30	348182.00	3160.06	344557.00	2873.65	0.0148	0.1265	49.93
2611.95	349061.00	3277.80	345600.00	2868.10	0.0151	0.1263	50.07
2613.60	349928.00	3368.69	346529.00	2978.51	0.0156	0.1262	50.45
2615.25	350764.00	3471.47	347414.00	3024.04	0.0159	0.1260	51.40
2616.90	351585.00	3542.99	348247.00	3171.64	0.0155	0.1258	51.73
2618.55	352431.00	3658.22	349108.00	3284.03	0.0152	0.1257	52.03
2620.20	353292.00	3708.44	349959.00	3371.93	0.0154	0.1255	52.21
2621.85	354149.00	3751.15	350787.00	3474.37	0.0156	0.1252	52.32
2623.50	354995.00	3773.39	351610.00	3545.16	0.0155	0.1250	52.31
2625.15	355847.00	3922.61	352463.00	3662.64	0.0139	0.1248	51.76
2626.80	356800.00	3880.39	353366.00	3712.51	0.0141	0.1246	51.34
2628.45	357742.00	3919.52	354254.00	3756.36	0.0141	0.1244	52.23
2630.10	358680.00	3881.31	355049.00	3774.63	0.0137	0.1241	53.61
2631.75	359648.00	3872.17	355819.00	3924.17	0.0141	0.1238	54.84
2633.40	360592.00	3888.67	356690.00	3875.56	0.0146	0.1234	53.93
2635.05	361506.00	3932.10	357712.00	3920.75	0.0146	0.1229	52.70
2636.70	362428.00	3989.36	358752.00	3878.38	0.0153	0.1225	51.47
2638.35	363309.00	4053.40	359818.00	3871.00	0.0156	0.1220	50.28
2640.00	364176.00	4154.06	360850.00	3894.58	0.0158	0.1215	49.20
2641.65	365036.00	4277.59	361854.00	3952.04	0.0148	0.1210	47.93
2643.30	365958.00	4395.66	362856.00	4017.22	0.0155	0.1206	46.85
2644.95	366839.00	4502.52	363809.00	4093.29	0.0152	0.1201	45.94
2646.60	367741.00	4582.92	364741.00	4247.60	0.0157	0.1196	46.89
2648.25	368620.00	4657.10	365590.00	4333.84	0.0151	0.1190	48.19
2649.90	369535.00	4677.78	366419.00	4473.16	0.0153	0.1184	49.34
2651.55	370446.00	4691.80	367253.00	4531.44	0.0161	0.1178	50.84
2653.20	371314.00	4736.24	368066.00	4617.25	0.0170	0.1172	52.27
2654.85	372141.00	4762.72	368884.00	4676.05	0.0171	0.1165	52.26
2656.50	372968.00	4767.81	369818.00	4678.53	0.0187	0.1159	51.66
2658.15	373727.00	4775.85	370768.00	4698.60	0.0173	0.1151	50.86
2659.80	374554.00	4773.60	371688.00	4761.99	0.0153	0.1142	50.30
2661.45	375499.00	4747.64	372570.00	4763.41	0.0153	0.1131	49.97
2663.10	376450.00	4707.44	373403.00	4772.64	0.0161	0.1121	49.91
2664.75	377362.00	4661.02	374231.00	4780.83	0.0167	0.1112	49.86
2666.40	378249.00	4615.83	375158.00	4760.11	0.0169	0.1103	49.68
2668.05	379137.00	4566.67	376146.00	4724.03	0.0178	0.1094	50.47
2669.70	379986.00	4528.89	377047.00	4674.87	0.0190	0.1085	51.79
2671.35	380787.00	4489.87	377889.00	4637.85	0.0191	0.1077	53.01
2673.00	381592.00	4424.66	378729.00	4586.49	0.0200	0.1069	54.23
2674.65	382364.00	4346.88	379549.00	4546.64	0.0190	0.1063	55.36
2676.30	383182.00	4255.31	380334.00	4514.74	0.0180	0.1056	55.96
2677.95	384048.00	4179.98	381125.00	4471.31	0.0179	0.1050	56.16
2679.60	384928.00	4138.97	381922.00	4391.62	0.0193	0.1044	56.70
2681.25	385745.00	4101.83	382702.00	4312.62	0.0200	0.1038	57.09
2682.90	386542.00	4032.55	383536.00	4212.97	0.0213	0.1032	57.74
2684.55	387292.00	3926.49	384389.00	4158.01	0.0191	0.1027	57.94
2686.20	388133.00	3830.51	385251.00	4127.57	0.0174	0.1021	59.11
2687.85	389061.00	3736.58	386017.00	4087.68	0.0163	0.1016	60.58
2689.50	390060.00	3661.53	386744.00	4011.29	0.0176	0.1011	61.34
2691.15	390987.00	3629.69	387494.00	3895.30	0.0182	0.1007	59.64
2692.80	391885.00	3618.32	388467.00	3796.68	0.0189	0.1003	57.71
2694.45	392756.00	3615.67	389552.00	3686.80	0.0204	0.0999	57.58
2696.10	393565.00	3623.59	390535.00	3637.88	0.0221	0.0996	58.31
2697.75	394316.00	3635.00	391420.00	3621.85	0.0228	0.0991	58.92
2699.40	395048.00	3656.45	392288.00	3615.25	0.0246	0.0986	59.43
2701.05	395727.00	3671.37	393118.00	3615.99	0.0246	0.0982	59.97
2702.70	396411.00	3684.83	393888.00	3629.06	0.0260	0.0978	61.02
2704.35	397059.00	3700.24	394595.00	3638.87	0.0271	0.0974	63.42
2706.00	397684.00	3725.24	395221.00	3663.18	0.0277	0.0971	65.72
2707.65	398298.00	3735.28	395819.00	3672.85	0.0269	0.0967	66.34
2709.30	398932.00	3753.36	396483.00	3686.29	0.0285	0.0964	66.60
2710.95	399532.00	3759.00	397126.00	3701.86	0.0286	0.0962	66.47
2712.60	400131.00	3773.64	397762.00	3728.49	0.0308	0.0959	66.59
2714.25	400690.00	3779.05	398380.00	3736.33	0.0303	0.0956	66.64
2715.90	401259.00	3788.54	399016.00	3755.96	0.0322	0.0952	66.64
2717.55	401797.00	3795.04	399625.00	3759.55	0.0326	0.0947	66.54
2719.20	402331.00	3795.34	400231.00	3776.45	0.0328	0.0942	66.45
2720.85	402866.00	3797.51	400808.00	3779.72	0.0344	0.0936	67.26
2722.50	403378.00	3798.42	401359.00	3790.50	0.0340	0.0928	68.29
2724.15	403901.00	3797.65	401881.00	3795.92	0.0336	0.0921	69.19
2725.80	404434.00	3792.42	402404.00	3795.24	0.0333	0.0912	69.26
2727.45	404977.00	3782.42	402953.00	3797.94	0.0342	0.0905	69.00
2729.10	405511.00	3772.72	403492.00	3798.55	0.0357	0.0897	69.03
2730.75	406026.00	3760.32	404034.00	3797.35	0.0343	0.0889	68.71
2732.40	406568.00	3745.03	404596.00	3790.43	0.0360	0.0880	68.61
2734.05	407088.00	3730.12	405158.00	3778.61	0.0353	0.0873	68.42
2735.70	407623.00	3715.10	405706.00	3769.46	0.0354	0.0863	68.10
2737.35	408163.00	3700.06	406264.00	3753.55	0.0340	0.0854	67.76
2739.00	408732.00	3684.41	406825.00	3737.82	0.0353	0.0844	67.66
2740.65	409286.00	3671.07	407376.00	3721.74	0.0346	0.0836	67.42
2742.30	409856.00	3658.25	407938.00	3706.66	0.0332	0.0826	67.12
2743.95	410457.00	3646.45	408526.00	3689.42	0.0326	0.0816	66.89
2745.60	411077.00	3636.52	409115.00	3675.10	0.0326	0.0811	66.67
2747.25	411700.00	3639.46	409697.00	3661.41	0.0305	0.0802	65.60
2748.90	412374.00	3627.20	410344.00	3648.54	0.0297	0.0795	64.32
2750.55	413072.00	3618.03	411015.00	3636.18	0.0305	0.0790	63.15
2752.20	413756.00	3608.38	411685.00	3639.75	0.0296	0.0778	62.47
2753.85	414472.00	3597.09	412412.00	3626.51	0.0293	0.0773	61.88
2755.50	415200.00	3584.32	413141.00	3617.14	0.0296	0.0762	61.78
2757.15	415931.00	3570.45	413860.00	3606.88	0.0297	0.0757	62.53
2758.80	416665.00	3557.74	414566.00	3595.58	0.0306	0.0743	63.38
2760.45	417392.00	3547.23	415305.00	3582.44	0.0302	0.0733	63.55
2762.10	418136.00	3535.62	416060.00	3567.99	0.0290	0.0725	63.34
2763.75	418920.00	3526.23	416823.00	3555.06	0.0294	0.0714	63.20
2765.40	419706.00	3519.38	417589.00	3544.51	0.0283	0.0707	63.12
2767.05	420530.00	3520.25	418367.00	3531.86	0.0281	0.0699	62.98
2768.70	421371.00	3525.88	419182.00	3523.56	0.0260	0.0691	62.65
2770.35	422290.00	3537.62	420015.00	3516.91	0.0258	0.0684	62.73
2772.00	423224.00	3544.62	420867.00	3522.44	0.0251	0.0673	62.65
2773.65	424199.00	3545.21	421780.00	3528.67	0.0279	0.0664	62.89
2775.30	425090.00	3560.67	422728.00	3545.30	0.0303	0.0653	63.02
2776.95	425924.00	3599.94	423717.00	3543.94	0.0268	0.0644	62.49
2778.60	426881.00	3669.19	424698.00	3546.52	0.0240	0.0635	61.92
2780.25	427965.00	3770.63	425605.00	3579.22	0.0207	0.0626	60.99
2781.90	429236.00	3940.97	426580.00	3642.47	0.0176	0.0616	59.51
2783.55	430760.00	4456.30	427723.00	3743.80	0.0139	0.0612	56.63
2785.20	432701.00	4474.33	429109.00	3897.43	0.0118	0.0617	53.74
2786.85	434965.00	4443.51	430744.00	4456.14	0.0118	0.0624	52.34
2788.50	437204.00	4269.83	432751.00	4474.80	0.0114	0.0625	51.79
2790.15	439508.00	3976.26	435047.00	4442.34	0.0114	0.0623	50.93
2791.80	441836.00	3639.69	437385.00	4255.38	0.0109	0.0621	50.40
2793.45	444272.00	3446.51	439752.00	3944.31	0.0120	0.0621	49.95
2795.10	446488.00	3395.37	442129.00	3597.00	0.0135	0.0624	49.81
2796.75	448450.00	3352.76	444528.00	3428.53	0.0152	0.0625	50.85
2798.40	450182.00	3353.81	446633.00	3392.92	0.0158	0.0629	51.83
2800.05	451845.00	3346.01	448493.00	3351.79	0.0173	0.0633	52.75
2801.70	453354.00	3282.04	450140.00	3353.94	0.0165	0.0635	53.20
2803.35	454929.00	3097.56	451767.00	3348.96	0.0158	0.0636	53.45
2805.00	456566.00	2985.72	453261.00	3293.02	0.0165	0.0636	52.42
2806.65	458142.00	3075.05	454894.00	3099.94	0.0168	0.0639	51.09
2808.30	459680.00	3161.60	456602.00	2983.26	0.0162	0.0642	49.97
2809.95	461265.00	3117.00	458228.00	3080.19	0.0145	0.0646	49.84
2811.60	463021.00	3027.40	459759.00	3165.98	0.0150	0.0647	50.11
2813.25	464724.00	2990.97	461324.00	3115.07	0.0159	0.0651	50.89
2814.90	466320.00	2929.74	463005.00	3027.73	0.0150	0.0654	51.88
2816.55	467998.00	2819.71	464629.00	2994.27	0.0137	0.0656	53.34
2818.20	469841.00	2694.99	466129.00	2942.10	0.0138	0.0653	54.59
2819.85	471668.00	2630.77	467726.00	2838.84	0.0157	0.0655	55.05
2821.50	473269.00	2636.83	469502.00	2713.91	0.0191	0.0656	56.16
2823.15	474583.00	2541.30	471243.00	2616.82	0.0177	0.0658	57.24
2824.80	475999.00	2472.81	472816.00	2668.48	0.0156	0.0662	58.72
2826.45	477602.00	2439.64	474116.00	2577.60	0.0185	0.0666	59.59
2828.10	478941.00	2403.25	475427.00	2475.72	0.0187	0.0668	58.99
2829.75	480262.00	2387.56	476978.00	2467.84	0.0167	0.0670	58.07
2831.40	481741.00	2333.49	478463.00	2400.73	0.0179	0.0672	57.66
2833.05	483113.00	2307.94	479800.00	2407.77	0.0191	0.0675	57.39
2834.70	484397.00	2293.64	481229.00	2345.23	0.0199	0.0677	57.76
2836.35	485621.00	2289.94	482606.00	2313.68	0.0208	0.0680	59.56
2838.00	486784.00	2288.19	483812.00	2300.04	0.0211	0.0684	61.34
2839.65	487926.00	2281.93	484957.00	2287.51	0.0227	0.0688	62.82
2841.30	488984.00	2285.92	486063.00	2291.56	0.0241	0.0692	63.97
2842.95	489972.00	2292.99	487149.00	2286.49	0.0237	0.0694	64.56
2844.60	490975.00	2306.09	488227.00	2280.17	0.0235	0.0695	63.12
2846.25	491987.00	2320.05	489322.00	2288.48	0.0221	0.0695	61.12
2847.90	493059.00	2331.29	490398.00	2295.94	0.0215	0.0695	59.74
2849.55	494161.00	2344.83	491464.00	2314.69	0.0214	0.0695	59.43
2851.20	495272.00	2357.08	492519.00	2325.50	0.0209	0.0697	59.13
2852.85	496406.00	2364.99	493613.00	2337.22	0.0211	0.0699	59.73
2854.50	497526.00	2378.98	494683.00	2352.07	0.0208	0.0701	60.77
2856.15	498658.00	2399.49	495745.00	2361.10	0.0209	0.0703	61.67
2857.80	499780.00	2420.23	496823.00	2367.44	0.0205	0.0705	60.81
2859.45	500919.00	2438.15	497980.00	2386.43	0.0200	0.0707	59.61
2861.10	502084.00	2467.00	499159.00	2409.14	0.0200	0.0708	58.74
2862.75	503249.00	2493.17	500326.00	2429.97	0.0203	0.0709	58.55
2864.40	504397.00	2503.56	501484.00	2445.94	0.0204	0.0709	58.36
2866.05	505539.00	2527.26	502659.00	2487.22	0.0187	0.0708	58.34
2867.70	506785.00	2543.79	503820.00	2498.94	0.0195	0.0707	59.05
2869.35	507984.00	2572.41	504932.00	2507.86	0.0196	0.0708	59.59
2871.00	509170.00	2599.38	506092.00	2544.94	0.0177	0.0709	59.14
2872.65	510488.00	2615.84	507335.00	2542.88	0.0183	0.0711	58.75
2874.30	511757.00	2619.01	508542.00	2597.80	0.0183	0.0712	58.33
2875.95	513025.00	2600.39	509808.00	2600.98	0.0188	0.0712	58.18
2877.60	514257.00	2583.09	511110.00	2629.44	0.0193	0.0711	58.11
2879.25	515459.00	2553.64	512387.00	2608.84	0.0197	0.0709	58.04
2880.90	516641.00	2529.55	513648.00	2592.15	0.0210	0.0708	58.05
2882.55	517754.00	2520.84	514870.00	2573.96	0.0205	0.0706	57.95
2884.20	518895.00	2522.38	516074.00	2532.42	0.0216	0.0704	59.09
2885.85	519979.00	2539.56	517175.00	2526.85	0.0218	0.0701	60.30
2887.50	521059.00	2567.21	518256.00	2515.62	0.0220	0.0698	61.05
2889.15	522137.00	2620.50	519349.00	2527.18	0.0221	0.0695	60.56
2890.80	523211.00	2679.05	520466.00	2549.13	0.0215	0.0690	59.82
2892.45	524324.00	2731.63	521595.00	2583.52	0.0209	0.0686	59.35
2894.10	525473.00	2794.32	522708.00	2659.49	0.0198	0.0683	59.05
2895.75	526691.00	2835.66	523829.00	2703.03	0.0196	0.0681	59.02
2897.40	527925.00	2839.28	524973.00	2769.21	0.0198	0.0678	59.88
2899.05	529151.00	2843.35	526128.00	2827.21	0.0196	0.0677	60.85
2900.70	530393.00	2872.77	527312.00	2844.99	0.0199	0.0677	60.95
2902.35	531622.00	2923.95	528539.00	2833.55	0.0203	0.0677	58.93
2904.00	532821.00	3002.67	529872.00	2854.90	0.0179	0.0679	56.46
2905.65	534180.00	3126.36	531226.00	2901.33	0.0148	0.0680	54.21
2907.30	535823.00	3241.73	532541.00	2976.51	0.0134	0.0681	52.38
2908.95	537631.00	3281.13	533958.00	3109.30	0.0140	0.0684	51.06
2910.60	539349.00	3313.47	535632.00	3237.96	0.0144	0.0688	51.50
2912.25	541010.00	3236.47	537366.00	3272.14	0.0143	0.0695	52.23
2913.90	542668.00	3138.49	539008.00	3327.90	0.0132	0.0703	52.53
2915.55	544440.00	3051.78	540613.00	3259.99	0.0135	0.0715	52.40
2917.20	546144.00	2967.58	542218.00	3165.06	0.0140	0.0730	52.39
2918.85	547756.00	2880.22	543875.00	3067.33	0.0140	0.0749	53.26
2920.50	549331.00	2800.40	545434.00	3024.45	0.0151	0.0770	54.79
2922.15	550750.00	2782.36	546856.00	2910.54	0.0163	0.0793	54.97
2923.80	552026.00	2723.97	548322.00	2861.16	0.0179	0.0813	54.92
2925.45	553161.00	2650.51	549746.00	2775.43	0.0175	0.0836	54.77
2927.10	554287.00	2581.51	551036.00	2784.33	0.0169	0.0866	55.39
2928.75	555412.00	2546.91	552131.00	2717.55	0.0193	0.0897	58.14
2930.40	556367.00	2553.71	552980.00	2661.77	0.0214	0.0924	60.90
2932.05	557202.00	2633.59	553824.00	2609.18	0.0228	0.0948	61.14
2933.70	557965.00	2646.92	554835.00	2548.73	0.0205	0.0977	59.62
2935.35	558787.00	2592.08	555861.00	2545.49	0.0196	0.1015	58.46
2937.00	559618.00	2588.66	556703.00	2559.18	0.0188	0.1045	59.03
2938.65	560457.00	2606.94	557402.00	2663.32	0.0179	0.1061	60.02
2940.30	561324.00	2595.55	558081.00	2643.54	0.0197	0.1089	60.47
2941.95	562094.00	2606.70	558795.00	2591.46	0.0201	0.1121	59.09
2943.60	562827.00	2605.76	559606.00	2588.40	0.0207	0.1147	57.62
2945.25	563523.00	2597.67	560452.00	2607.01	0.0215	0.1169	57.76
2946.90	564178.00	2586.66	561244.00	2594.14	0.0223	0.1193	58.78
2948.55	564797.00	2573.30	561900.00	2605.85	0.0228	0.1213	59.86
2950.20	565395.00	2561.40	562533.00	2608.61	0.0236	0.1229	60.99
2951.85	565964.00	2554.87	563146.00	2602.67	0.0246	0.1240	61.99
2953.50	566504.00	2544.78	563747.00	2594.71	0.0241	0.1258	62.55
2955.15	567049.00	2517.03	564321.00	2584.00	0.0249	0.1264	62.08
2956.80	567574.00	2506.99	564943.00	2570.04	0.0246	0.1268	61.56
2958.45	568103.00	2495.03	565550.00	2558.45	0.0251	0.1282	61.55
2960.10	568615.00	2495.07	566083.00	2553.85	0.0252	0.1291	61.70
2961.75	569123.00	2485.37	566598.00	2542.77	0.0255	0.1308	62.07
2963.40	569617.00	2472.11	567092.00	2514.62	0.0251	0.1314	63.08
2965.05	570116.00	2460.92	567560.00	2507.32	0.0258	0.1303	64.31
2966.70	570608.00	2451.68	568061.00	2494.89	0.0254	0.1311	64.70
2968.35	571104.00	2443.38	568543.00	2496.44	0.0253	0.1290	63.50
2970.00	571609.00	2435.18	569140.00	2485.04	0.0255	0.1284	62.26
2971.65	572113.00	2426.68	569694.00	2470.02	0.0254	0.1267	60.92
2973.30	572626.00	2423.63	570275.00	2457.51	0.0249	0.1237	59.56
2974.95	573161.00	2431.38	570873.00	2447.04	0.0256	0.1205	58.50
2976.60	573696.00	2419.77	571472.00	2437.55	0.0250	0.1177	59.69
2978.25	574257.00	2410.15	571984.00	2428.72	0.0256	0.1147	61.21
2979.90	574819.00	2401.81	572494.00	2420.66	0.0261	0.1110	62.19
2981.55	575388.00	2395.72	573063.00	2433.50	0.0264	0.1068	61.75
2983.20	575974.00	2389.79	573698.00	2419.72	0.0252	0.1023	61.10
2984.85	576615.00	2382.33	574377.00	2408.11	0.0248	0.0974	61.27
2986.50	577298.00	2379.07	575037.00	2398.69	0.0246	0.0939	61.97
2988.15	578011.00	2388.53	575665.00	2393.38	0.0257	0.0896	62.72
2989.80	578726.00	2379.75	576354.00	2385.39	0.0270	0.0854	62.74
2991.45	579441.00	2374.22	577128.00	2376.31	0.0273	0.0820	62.44
2993.10	580179.00	2404.77	577937.00	2389.43	0.0265	0.0787	62.05
2994.75	580970.00	2438.55	578756.00	2379.38	0.0230	0.0753	62.15
2996.40	581925.00	2494.02	579563.00	2373.29	0.0205	0.0716	62.25
2998.05	583048.00	2577.27	580416.00	2416.90	0.0174	0.0675	59.82
2999.70	584453.00	2629.54	581497.00	2459.14	0.0170	0.0636	56.23
3001.35	585975.00	2552.96	582859.00	2570.28	0.0170	0.0604	52.90
3003.00	587586.00	2471.17	584551.00	2633.16	0.0171	0.0576	54.59
3004.65	589261.00	2525.06	586126.00	2544.47	0.0202	0.0550	57.36
3006.30	590744.00	2517.76	587735.00	2463.71	0.0193	0.0525	58.76
3007.95	592373.00	2511.83	589454.00	2532.83	0.0184	0.0502	59.69
3009.60	594165.00	2588.62	591046.00	2514.24	0.0201	0.0479	60.43
3011.25	595879.00	2572.67	592815.00	2511.03	0.0184	0.0459	58.74
3012.90	597829.00	2482.64	594793.00	2624.75	0.0163	0.0441	56.74
3014.55	600125.00	2421.29	596825.00	2527.34	0.0184	0.0426	55.36
3016.20	602232.00	2414.30	599140.00	2424.34	0.0192	0.0412	57.90
3017.85	604319.00	2417.07	601291.00	2417.69	0.0201	0.0400	61.21
3019.50	606369.00	2424.90	603306.00	2410.43	0.0218	0.0389	63.82
3021.15	608312.00	2428.95	605337.00	2423.75	0.0242	0.0379	64.47
3022.80	610111.00	2452.50	607377.00	2426.04	0.0262	0.0371	65.05
3024.45	611811.00	2498.28	609279.00	2431.97	0.0257	0.0365	65.54
3026.10	613575.00	2569.33	611049.00	2475.66	0.0267	0.0360	66.30
3027.75	615292.00	2680.76	612791.00	2527.36	0.0263	0.0352	66.68
3029.40	617071.00	2822.01	614563.00	2622.17	0.0248	0.0347	65.92
3031.05	618994.00	2974.85	616387.00	2768.88	0.0249	0.0341	65.23
3032.70	620931.00	3147.68	618322.00	2919.08	0.0249	0.0338	64.36
3034.35	622896.00	3336.81	620317.00	3084.74	0.0236	0.0331	63.12
3036.00	625009.00	3542.91	622370.00	3295.15	0.0237	0.0326	61.93
3037.65	627138.00	3878.13	624533.00	3466.47	0.0177	0.0326	57.18
3039.30	630002.00	4263.48	626863.00	3840.45	0.0122	0.0330	51.50
3040.95	634092.00	4473.18	629917.00	4258.77	0.0120	0.0342	52.54
3042.60	638123.00	4471.79	633724.00	4471.02	0.0119	0.0350	51.13
3044.25	642084.00	4216.23	637782.00	4494.91	0.0129	0.0356	50.01
3045.90	645683.00	4135.85	641767.00	4224.93	0.0147	0.0365	51.12
3047.55	648758.00	4162.30	645208.00	4130.46	0.0158	0.0377	49.42
3049.20	651528.00	4110.03	648357.00	4166.27	0.0153	0.0389	50.62
3050.85	654297.00	3977.06	650991.00	4140.16	0.0165	0.0401	50.97
3052.50	656793.00	3915.51	653634.00	3991.98	0.0157	0.0413	49.82
3054.15	659342.00	3858.95	656175.00	3934.78	0.0146	0.0426	50.67
3055.80	661987.00	3834.46	658555.00	3860.62	0.0153	0.0440	47.81
3057.45	664434.00	3658.15	661261.00	3854.87	0.0139	0.0454	46.53
3059.10	667045.00	3291.64	663748.00	3784.86	0.0149	0.0469	51.10
3060.75	669409.00	3118.36	665868.00	3393.24	0.0167	0.0484	50.77
3062.40	671452.00	2922.23	668255.00	3187.27	0.0152	0.0499	51.25
3064.05	673632.00	2792.82	670329.00	3063.45	0.0157	0.0515	55.04
3065.70	675674.00	2826.59	672065.00	2845.08	0.0179	0.0532	52.48
3067.35	677403.00	2748.50	674262.00	2771.78	0.0178	0.0547	54.23
3069.00	679092.00	2785.16	676022.00	2840.10	0.0190	0.0562	54.86
3070.65	680639.00	2709.44	677627.00	2733.60	0.0185	0.0575	52.74
3072.30	682192.00	2601.68	679341.00	2793.92	0.0166	0.0588	55.94
3073.95	683877.00	2493.31	680647.00	2708.91	0.0183	0.0599	54.60
3075.60	685378.00	2440.49	682220.00	2599.77	0.0186	0.0611	54.37
3077.25	686827.00	2408.83	683853.00	2494.19	0.0197	0.0619	55.61
3078.90	688178.00	2400.19	685248.00	2443.65	0.0204	0.0628	56.65
3080.55	689466.00	2395.56	686604.00	2410.52	0.0211	0.0634	57.51
3082.20	690698.00	2381.70	687895.00	2400.78	0.0217	0.0641	57.16
3083.85	691888.00	2362.80	689183.00	2398.06	0.0218	0.0646	57.82
3085.50	693058.00	2351.03	690373.00	2387.53	0.0226	0.0650	58.71
3087.15	694180.00	2344.99	691514.00	2367.06	0.0232	0.0654	57.17
3088.80	695267.00	2344.04	692748.00	2352.99	0.0239	0.0651	58.32
3090.45	696325.00	2350.58	693841.00	2346.09	0.0249	0.0648	59.30
3092.10	697348.00	2361.73	694911.00	2342.62	0.0246	0.0645	58.63
3093.75	698387.00	2372.08	696015.00	2347.03	0.0248	0.0640	60.10
3095.40	699427.00	2381.65	697009.00	2358.39	0.0251	0.0635	60.10
3097.05	700461.00	2387.34	698061.00	2368.73	0.0249	0.0631	59.91
3098.70	701512.00	2391.01	699123.00	2379.63	0.0247	0.0628	61.17
3100.35	702577.00	2393.92	700120.00	2386.25	0.0235	0.0624	61.05
3102.00	703703.00	2393.23	701186.00	2389.67	0.0233	0.0621	61.22
3103.65	704842.00	2396.06	702254.00	2394.07	0.0245	0.0616	60.10
3105.30	705933.00	2414.85	703428.00	2393.52	0.0236	0.0610	59.78
3106.95	707078.00	2444.08	704601.00	2392.28	0.0229	0.0603	60.83
3108.60	708273.00	2513.31	705689.00	2409.38	0.0216	0.0593	61.51
3110.25	709560.00	2712.17	706838.00	2435.17	0.0207	0.0582	61.31
3111.90	710929.00	2808.05	708077.00	2481.18	0.0207	0.0569	60.91
3113.55	712328.00	2915.67	709431.00	2703.14	0.0200	0.0555	59.35
3115.20	713811.00	3028.56	710935.00	2808.46	0.0195	0.0544	59.24
3116.85	715370.00	3205.06	712399.00	2921.20	0.0200	0.0533	58.81
3118.50	716918.00	3355.93	713965.00	3040.23	0.0178	0.0525	58.31
3120.15	718683.00	3482.88	715592.00	3231.12	0.0163	0.0520	57.08
3121.80	720628.00	3583.60	717274.00	3389.40	0.0160	0.0517	51.65
3123.45	722616.00	3644.01	719424.00	3532.07	0.0175	0.0516	54.26
3125.10	724442.00	3648.19	721227.00	3609.29	0.0180	0.0517	56.67
3126.75	726214.00	3638.88	723024.00	3654.19	0.0177	0.0518	55.23
3128.40	728013.00	3570.39	724916.00	3646.18	0.0181	0.0520	54.70
3130.05	729765.00	3543.22	726713.00	3636.07	0.0191	0.0520	54.00
3131.70	731430.00	3550.44	728536.00	3543.99	0.0205	0.0520	53.48
3133.35	732981.00	3582.29	730289.00	3542.89	0.0202	0.0520	55.80
3135.00	734553.00	3651.63	731804.00	3552.91	0.0203	0.0521	53.75
3136.65	736111.00	3753.57	733454.00	3594.11	0.0191	0.0526	53.64
3138.30	737754.00	3831.24	735005.00	3675.26	0.0157	0.0530	53.47
3139.95	739733.00	3929.41	736577.00	3786.59	0.0152	0.0530	50.38
3141.60	741774.00	3987.83	738508.00	3859.88	0.0151	0.0530	48.74
3143.25	743842.00	3971.38	740621.00	3979.84	0.0155	0.0532	50.40
3144.90	745837.00	3903.97	742548.00	3993.20	0.0156	0.0534	50.79
3146.55	747816.00	3850.34	744556.00	3959.36	0.0155	0.0532	50.91
3148.20	749810.00	3850.98	746545.00	3873.36	0.0153	0.0528	51.13
3149.85	751856.00	3796.95	748539.00	3837.23	0.0146	0.0522	52.36
3151.50	754016.00	3655.24	750515.00	3858.61	0.0149	0.0512	53.33
3153.15	756172.00	3546.16	752600.00	3762.69	0.0164	0.0501	52.23
3154.80	758186.00	3538.49	754912.00	3587.30	0.0190	0.0486	53.24
3156.45	759971.00	3556.19	757041.00	3517.80	0.0173	0.0472	52.56
3158.10	761996.00	3457.83	759073.00	3554.51	0.0151	0.0459	54.13
3159.75	764379.00	3288.34	760971.00	3558.06	0.0170	0.0448	57.87
3161.40	766541.00	3186.12	763020.00	3357.72	0.0188	0.0437	57.83
3163.05	768551.00	3049.60	765388.00	3236.81	0.0165	0.0429	57.19
3164.70	770884.00	2906.34	767573.00	3140.75	0.0172	0.0422	59.15
3166.35	773156.00	2825.45	769686.00	2943.79	0.0202	0.0415	58.06
3168.00	775119.00	2760.95	772106.00	2868.13	0.0192	0.0408	59.26
3169.65	777219.00	2730.93	774203.00	2782.89	0.0211	0.0402	59.69
3171.30	779166.00	2731.71	776266.00	2733.50	0.0226	0.0396	60.86
3172.95	781013.00	2764.26	778272.00	2728.10	0.0235	0.0391	62.50
3174.60	782809.00	2844.89	780126.00	2735.59	0.0234	0.0386	61.32
3176.25	784634.00	2969.96	782031.00	2797.15	0.0245	0.0382	62.02
3177.90	786398.00	3133.32	783839.00	2908.16	0.0261	0.0380	64.37
3179.55	788060.00	3407.74	785547.00	3040.91	0.0276	0.0379	63.47
3181.20	789639.00	3812.10	787301.00	3231.29	0.0245	0.0378	64.60
3182.85	791416.00	4355.05	788879.00	3598.07	0.0218	0.0379	64.89
3184.50	793417.00	5123.64	790544.00	4066.97	0.0187	0.0381	59.83
3186.15	795738.00	6354.57	792657.00	4764.92	0.0159	0.0381	56.61
3187.80	798457.00	8028.47	795022.00	5880.79	0.0138	0.0381	57.37
3189.45	801588.00	9613.81	797572.00	7567.96	0.0138	0.0380	58.84
3191.10	804734.00	11049.40	800475.00	9079.09	0.0136	0.0378	57.26
3192.75	807941.00	12371.00	803758.00	10656.90	0.0148	0.0375	56.08
